Wavelength [nm]   original c0 (counts):    lamp-scaled c0   C0 from 20130708_VIS_C0_refined_Langley_at_MLO_screened_3.0x_averagethru20130712_20140718.dat.
171.85	NaN	NaN
172.67	2028609	NaN
173.48	-1869482	NaN
174.29	2699328	NaN
175.1	6.286836e+008	NaN
175.91	7.846398e+008	NaN
176.72	9.951241e+008	NaN
177.54	1.285429e+009	NaN
178.35	1.585937e+009	NaN
179.16	2.020983e+009	NaN
179.97	2.458725e+009	NaN
180.78	3.177925e+009	NaN
181.59	3.998475e+009	NaN
182.41	5.343974e+009	NaN
183.22	6.717651e+009	NaN
184.03	8.982459e+009	NaN
184.84	1.264514e+010	NaN
185.65	1.662249e+010	NaN
186.46	2.231436e+010	NaN
187.28	3.102947e+010	NaN
188.09	4.275419e+010	NaN
188.9	5.928423e+010	NaN
189.71	8.231198e+010	NaN
190.52	1.189508e+011	NaN
191.33	1.686924e+011	NaN
192.14	2.514587e+011	NaN
192.96	3.805496e+011	NaN
193.77	5.817637e+011	NaN
194.58	8.748677e+011	NaN
195.39	1.37805e+012	NaN
196.2	2.219826e+012	NaN
197.01	3.649244e+012	NaN
197.83	5.448988e+012	NaN
198.64	9.18114e+012	NaN
199.45	1.654746e+013	NaN
200.26	3.056002e+013	NaN
201.07	5.79612e+013	NaN
201.88	1.117184e+014	NaN
202.69	2.182057e+014	NaN
203.51	3.917189e+014	NaN
204.32	8.704314e+014	NaN
205.13	2.074249e+015	NaN
205.94	5.089333e+015	NaN
206.75	1.362379e+016	NaN
207.56	3.82192e+016	NaN
208.37	1.148446e+017	NaN
209.18	3.536308e+017	NaN
210	1.328149e+018	NaN
210.81	4.975373e+018	NaN
211.62	2.188835e+019	NaN
212.43	1.145426e+020	NaN
213.24	5.195414e+020	NaN
214.05	2.11761e+020	NaN
214.86	9.227689e+019	NaN
215.68	4.773633e+019	NaN
216.49	1.2353e+019	NaN
217.3	3.233624e+018	NaN
218.11	8.642827e+017	NaN
218.92	2.234215e+017	NaN
219.73	5.702468e+016	NaN
220.54	1.492297e+016	NaN
221.35	4.008143e+015	NaN
222.17	1.057877e+015	NaN
222.98	2.71019e+014	NaN
223.79	7.121426e+013	NaN
224.6	1.886223e+013	NaN
225.41	4.877357e+012	NaN
226.22	1.297885e+012	NaN
227.03	3.535399e+011	NaN
227.84	1.063488e+011	NaN
228.65	3.926157e+010	NaN
229.47	2.209827e+010	NaN
230.28	2.180279e+010	NaN
231.09	3.960277e+010	NaN
231.9	1.138297e+011	NaN
232.71	4.508195e+011	NaN
233.52	2.103245e+012	NaN
234.33	9.885109e+012	NaN
235.14	4.791752e+013	NaN
235.95	2.376577e+014	NaN
236.77	1.177315e+015	NaN
237.58	5.982021e+015	NaN
238.39	2.929148e+016	NaN
239.2	1.490093e+017	NaN
240.01	7.465636e+017	NaN
240.82	3.514647e+018	NaN
241.63	1.572746e+019	NaN
242.44	6.735741e+019	NaN
243.25	2.734614e+020	NaN
244.06	3.914944e+020	NaN
244.88	1.011046e+021	NaN
245.69	1.013181e+021	NaN
246.5	2.689557e+020	NaN
247.31	7.800835e+019	NaN
248.12	2.449554e+019	NaN
248.93	1.083569e+019	NaN
249.74	5.294607e+018	NaN
250.55	3.023811e+018	NaN
251.36	1.847677e+018	NaN
252.17	1.339669e+018	NaN
252.98	9.665031e+017	NaN
253.79	8.814124e+017	NaN
254.61	7.913951e+017	NaN
255.42	8.298091e+017	NaN
256.23	1.011624e+018	NaN
257.04	1.473721e+018	NaN
257.85	2.183248e+018	NaN
258.66	3.531301e+018	NaN
259.47	7.61541e+018	NaN
260.28	1.95138e+019	NaN
261.09	5.298224e+019	NaN
261.9	1.934467e+020	NaN
262.71	8.682101e+020	NaN
263.52	2.108375e+021	NaN
264.33	8.171765e+020	NaN
265.14	4.396039e+020	NaN
265.95	1.555159e+020	NaN
266.76	3.432129e+019	NaN
267.58	6.802769e+018	NaN
268.39	1.229897e+018	NaN
269.2	2.291731e+017	NaN
270.01	4.940211e+016	NaN
270.82	9.672914e+015	NaN
271.63	1.80156e+015	NaN
272.44	3.278462e+014	NaN
273.25	5.211986e+013	NaN
274.06	8.789199e+012	NaN
274.87	1.554211e+012	NaN
275.68	2.982346e+011	NaN
276.49	6.237026e+010	NaN
277.3	1.334123e+010	NaN
278.11	2.755046e+009	NaN
278.92	6.102165e+008	NaN
279.73	1.357777e+008	NaN
280.54	3.039063e+007	NaN
281.35	7158739	NaN
282.16	1893513	NaN
282.97	556906.1	NaN
283.78	175692.5	NaN
284.59	55891.74	NaN
285.4	19094.28	NaN
286.21	7451.773	NaN
287.02	3073.069	NaN
287.83	1258.121	NaN
288.64	559.7644	NaN
289.45	268.3553	NaN
290.26	144.3155	NaN
291.07	76.94815	NaN
291.88	43.15214	NaN
292.69	27.00924	NaN
293.5	16.71056	NaN
294.31	11.40127	NaN
295.12	7.902023	NaN
295.93	5.689275	NaN
296.74	4.302349	NaN
297.55	3.30219	NaN
298.36	2.636804	NaN
299.17	2.146096	NaN
299.98	1.818963	NaN
300.79	1.568036	9.43956
301.6	1.384221	9.397342
302.41	1.240344	9.230359
303.22	1.126882	9.999327
304.03	1.03427	10.59804
304.84	0.955828	9.836751
305.65	0.8933612	9.029371
306.46	0.8527884	8.569686
307.27	0.7966918	8.554647
308.08	0.7749971	7.935881
308.89	0.7497595	7.559925
309.7	0.7213639	7.151332
310.51	0.7036136	7.895866
311.32	0.6851425	8.508974
312.13	0.6722483	8.462464
312.94	0.6648922	8.524522
313.75	0.6549551	8.144491
314.56	0.6547894	7.998177
315.37	0.6475402	7.550441
316.18	0.650969	7.496785
316.98	0.6553619	7.815772
317.79	0.6604142	7.262847
318.6	0.6663519	7.416863
319.41	0.675516	7.276143
320.22	0.6864851	7.604581
321.03	0.6956914	7.768193
321.84	0.7053582	7.154517
322.65	0.7288784	6.357804
323.46	0.7427251	5.861541
324.27	0.762108	6.180515
325.08	0.7819799	6.30525
325.89	0.8039438	7.325763
326.7	0.8262916	7.863218
327.51	0.8554891	7.772074
328.31	0.879452	8.243764
329.12	0.9168529	8.978818
329.93	0.940232	8.645743
330.74	0.9998501	8.095046
331.55	1.070236	7.982751
332.36	1.196583	7.757011
333.17	1.426298	7.56039
333.98	1.867709	8.294207
334.79	2.618048	9.18376
335.6	3.702796	9.864225
336.4	5.33983	11.11829
337.21	7.982488	13.87487
338.02	11.78628	17.98469
338.83	16.43353	22.75209
339.64	21.65526	27.93414
340.45	26.32908	32.24412
341.26	30.41325	36.05934
342.07	35.13408	40.54385
342.87	39.05748	44.2049
343.68	40.00455	44.32223
344.49	41.85782	45.22982
345.3	46.73672	50.37391
346.11	51.15897	54.84829
346.92	54.06752	57.75187
347.73	56.07054	59.56143
348.53	58.07955	61.92282
349.34	61.84529	65.92394
350.15	67.86055	72.97918
350.96	71.55934	76.28276
351.77	71.62844	75.67744
352.58	73.32007	78.34534
353.39	80.11925	86.44444
354.19	87.9916	94.77254
355	91.20408	97.44777
355.81	89.08231	94.32921
356.62	83.68112	87.41011
357.43	78.62908	81.65167
358.24	78.34501	82.00545
359.04	88.571	94.63156
359.85	101.2372	107.9557
360.66	102.468	107.6862
361.47	101.4626	107.0454
362.28	107.114	113.3081
363.08	113.2596	119.1617
363.89	117.1518	123.3265
364.7	123.4347	129.7247
365.51	134.5901	141.8745
366.32	143.5759	149.7217
367.12	144.5321	149.3412
367.93	142.6352	146.4126
368.74	145.2834	148.881
369.55	151.207	154.803
370.36	152.605	156.046
371.16	150.8964	155.1956
371.97	146.7024	151.5015
372.78	138.7812	143.4362
373.59	131.7071	136.3879
374.39	132.2066	137.3426
375.2	141.8746	148.4071
376.01	154.7675	161.5744
376.82	169.1589	176.8257
377.63	184.0767	192.9887
378.43	187.1745	195.0948
379.24	178.7548	184.7705
380.05	175.4221	183.0722
380.86	173.5674	181.3103
381.66	157.7289	162.8853
382.47	135.5607	139.2453
383.28	126.9673	131.7328
384.08	138.4072	145.7909
384.89	155.3959	164.0476
385.7	163.1499	170.5663
386.51	165.2446	172.3668
387.31	166.9633	173.3953
388.12	171.1649	177.8994
388.93	182.8227	191.2964
389.74	200.1103	209.7321
390.54	213.7788	222.9266
391.35	213.3339	220.3055
392.16	189.6952	192.433
392.96	158.0389	159.6023
393.77	154.6535	160.496
394.58	182.8199	191.5124
395.38	200.9008	206.6834
396.19	189.7755	191.6869
397	186.4876	190.8657
397.81	220.7177	230.4397
398.61	269.4217	279.9175
399.42	301.6289	312.3538
400.23	318.3456	329.7583
401.03	329.9325	341.2632
401.84	338.2793	349.1807
402.65	340.8629	350.3245
403.45	339.1856	348.7749
404.26	337.4712	346.3435
405.07	335.6445	343.8984
405.87	334.0352	342.3402
406.68	335.8193	344.1791
407.49	344.473	352.5772
408.29	356.0678	362.5898
409.1	359.843	364.5701
409.9	358.1052	362.4261
410.71	364.0995	369.9182
411.52	378.6051	384.6312
412.32	389.3349	394.2217
413.13	392.4029	396.7829
413.94	393.7927	398.6048
414.74	396.6575	400.981
415.55	400.3012	404.727
416.35	401.9346	406.5551
417.16	399.4266	403.5288
417.97	395.6665	400.7682
418.77	395.0267	402.6378
419.58	398.8787	408.7933
420.38	405.9984	418.6092
421.19	410.519	425.2761
422	408.529	424.8767
422.8	403.8784	421.4586
423.61	403.3184	423.3093
424.41	406.2542	426.6014
425.22	407.4079	427.8013
426.03	404.8151	425.2643
426.83	400.9087	420.7193
427.64	395.7735	413.2581
428.44	384.5256	400.1659
429.25	364.7024	379.8013
430.05	348.0314	365.5679
430.86	354.2671	375.049
431.66	381.9331	403.3868
432.47	410.2381	429.0056
433.28	422.2873	441.1003
434.08	427.0165	447.6082
434.89	437.6463	459.3018
435.69	452.772	473.1064
436.5	460.5425	478.8199
437.3	455.2872	473.7147
438.11	446.3058	466.6517
438.91	444.4655	466.9197
439.72	452.283	475.497
440.52	467.1624	490.1011
441.33	482.2052	506.0915
442.13	494.7541	518.9315
442.94	503.1407	526.7973
443.74	506.598	529.5679
444.55	505.3929	528.3654
445.35	503.3044	525.0905
446.16	506.3226	527.0671
446.96	515.0767	535.7921
447.77	526.898	547.0158
448.57	537.2516	558.0841
449.38	546.7914	569.5727
450.18	555.7863	578.4775
450.99	559.3585	581.0379
451.79	553.3305	574.1354
452.6	543.5189	563.8039
453.4	538.2765	559.9462
454.2	539.9394	561.228
455.01	547.6757	567.1076
455.81	556.1694	572.4119
456.62	562.299	575.5047
457.42	564.5993	575.5948
458.23	563.3393	572.696
459.03	562.4511	571.8881
459.83	565.7016	574.593
460.64	572.4802	580.3363
461.44	579.8534	585.7083
462.25	584.3954	588.5557
463.05	583.8543	585.8939
463.86	580.2513	581.1456
464.66	576.6616	576.2994
465.46	573.4936	573.5104
466.27	572.2305	572.7861
467.07	573.5768	573.6894
467.87	576.0972	576.3731
468.68	578.336	577.9061
469.48	579.0867	579.2845
470.29	580.9561	581.1511
471.09	586.5388	586.0558
471.89	593.7845	592.5734
472.7	601.3183	598.7259
473.5	607.2334	602.9102
474.3	610.2144	606.6091
475.11	612.1053	608.6696
475.91	614.6749	611.5147
476.71	618.326	615.4478
477.52	623.3197	621.137
478.32	628.6922	626.0783
479.12	632.6886	630.246
479.93	634.8928	632.9076
480.73	637.1699	635.2437
481.53	637.725	635.5252
482.34	635.7572	633.2856
483.14	630.3624	627.6306
483.94	618.2241	615.3086
484.75	597.0261	596.9629
485.55	575.3202	580.088
486.35	564.5594	571.8467
487.16	566.9828	576.4805
487.96	581.3524	588.964
488.76	600.0613	603.2625
489.56	612.2143	613.7383
490.37	615.2573	618.3716
491.17	613.5131	618.4246
491.97	610.5732	617.9951
492.77	610.4382	619.9852
493.58	615.5613	625.4715
494.38	621.7032	631.6681
495.18	625.3423	635.709
495.98	626.6855	636.5878
496.79	623.5591	634.3629
497.59	618.8434	630.0208
498.39	614.3107	625.1613
499.19	607.7686	619.1698
500	600.8272	600.8272
500.8	596.1707	596.1707
501.6	594.3102	594.3102
502.4	595.6475	595.6475
503.2	599.3693	599.3693
504.01	605.363	605.363
504.81	611.6768	611.6768
505.61	615.348	615.348
506.41	615.7572	615.7572
507.21	613.7913	613.7913
508.02	611.1412	611.1412
508.82	609.4022	609.4022
509.62	609.9036	609.9036
510.42	611.4417	611.4417
511.22	610.145	610.145
512.02	605.8686	605.8686
512.83	599.8494	599.8494
513.63	593.354	593.354
514.43	586.8177	586.8177
515.23	576.1392	576.1392
516.03	561.4261	561.4261
516.83	548.659	548.659
517.63	541.7048	541.7048
518.44	545.0914	545.0914
519.24	557.2819	557.2819
520.04	570.1994	570.1994
520.84	579.8691	579.8691
521.64	584.39	584.39
522.44	587.7097	587.7097
523.24	592.2773	592.2773
524.04	595.3064	595.3064
524.84	593.4602	593.4602
525.64	585.8281	585.8281
526.45	578.3622	578.3622
527.25	578.0991	578.0991
528.05	584.974	584.974
528.85	596.7795	596.7795
529.65	608.2599	608.2599
530.45	613.0315	613.0315
531.25	610.3739	610.3739
532.05	605.4808	605.4808
532.85	601.6143	601.6143
533.65	601.369	601.369
534.45	605.234	605.234
535.25	609.0349	609.0349
536.05	609.945	609.945
536.85	609.0636	609.0636
537.65	606.1172	606.1172
538.45	601.2895	601.2895
539.25	596.3874	596.3874
540.05	592.9282	592.9282
540.85	591.7451	591.7451
541.65	593.1965	593.1965
542.45	597.558	597.558
543.25	602.0569	602.0569
544.05	605.0298	605.0298
544.85	606.6828	606.6828
545.65	606.1183	606.1183
546.45	603.2954	603.2954
547.25	600.263	600.263
548.05	598.5154	598.5154
548.85	597.794	597.794
549.65	597.9784	597.9784
550.45	598.0734	598.0734
551.25	597.5746	597.5746
552.05	597.1661	597.1661
552.84	597.2762	597.2762
553.64	598.6383	598.6383
554.44	598.9432	598.9432
555.24	596.7147	596.7147
556.04	593.3557	593.3557
556.84	588.8783	588.8783
557.64	582.2478	582.2478
558.44	577.0216	577.0216
559.24	576.427	576.427
560.04	576.6129	576.6129
560.83	578.3583	578.3583
561.63	583.2839	583.2839
562.43	586.8339	586.8339
563.23	588.1532	588.1532
564.03	588.8482	588.8482
564.83	588.6591	597.5042
565.63	587.7993	597.5097
566.42	587.5433	598.6249
567.22	589.8733	600.2119
568.02	592.483	601.0307
568.82	593.4406	600.8539
569.62	592.5293	600.276
570.42	591.5553	601.5262
571.21	595.274	605.173
572.01	602.6786	611.3329
572.81	610.0428	616.8899
573.61	614.9191	619.8471
574.41	613.9936	619.4781
575.2	611.0043	617.2315
576	608.0862	614.9311
576.8	604.0474	612.7165
577.6	600.5834	611.1579
578.39	598.0661	609.7274
579.19	596.1678	609.7132
579.99	595.8961	611.0629
580.79	597.0626	612.9406
581.58	598.2729	615.0642
582.38	598.5888	616.5182
583.18	597.766	616.3757
583.98	594.4117	613.6279
584.77	589.4445	609.851
585.57	585.1538	605.566
586.37	581.543	600.2237
587.16	575.7541	594.2271
587.96	566.8798	585.0918
588.76	558.9884	576.32
589.55	555.6759	571.9075
590.35	557.6717	573.8354
591.15	564.2017	578.868
591.95	570.411	582.6495
592.74	572.774	583.7872
593.54	572.6609	583.2561
594.33	571.9891	582.194
595.13	571.6032	580.7573
595.93	571.4178	579.6858
596.72	570.2781	577.4083
597.52	568.921	574.1058
598.32	567.1243	570.1959
599.11	564.77	566.4045
599.91	562.334	562.9482
600.71	560.1087	560.5641
601.5	558.7049	559.6954
602.3	559.677	561.253
603.09	562.2576	564.0097
603.89	565.1667	566.8226
604.69	566.7129	568.6768
605.48	566.4666	568.4751
606.28	565.2488	568.0412
607.07	563.282	567.3019
607.87	560.8551	566.1577
608.66	558.0072	564.81
609.46	555.2161	564.2707
610.25	553.4469	564.4853
611.05	552.2377	565.0036
611.85	550.1081	564.2604
612.64	547.66	562.7713
613.44	545.1839	560.7739
614.23	542.5772	558.5326
615.03	539.1143	556.0369
615.82	536.3566	553.9926
616.62	535.8951	554.0152
617.41	537.2533	556.5025
618.21	540.6853	560.074
619	544.6005	562.6813
619.8	546.4363	563.9178
620.59	545.8406	563.0704
621.39	543.8635	560.1351
622.18	540.2059	556.1812
622.97	535.8449	552.1552
623.77	531.7416	548.4913
624.56	528.4489	545.7228
625.36	527.6096	545.5941
626.15	527.4457	547.201
626.95	527.9865	550.0634
627.74	527.8678	551.4541
628.53	526.2366	550.7769
629.33	523.6683	547.7269
630.12	521.0854	542.7624
630.92	518.41	538.0163
631.71	517.2206	534.9661
632.5	516.5076	533.3697
633.3	516.0429	532.6887
634.09	515.4111	531.5817
634.89	513.6713	529.5635
635.68	512.292	512.292
636.47	511.8249	511.8249
637.27	511.684	511.684
638.06	510.4976	510.4976
638.85	507.0163	507.0163
639.65	502.529	502.529
640.44	498.2224	498.2224
641.23	495.4309	495.4309
642.03	494.4376	494.4376
642.82	494.11	494.11
643.61	492.9624	492.9624
644.41	490.9096	490.9096
645.2	488.0495	488.0495
645.99	485.9761	485.9761
646.78	484.6309	484.6309
647.58	483.011	483.011
648.37	479.5667	479.5667
649.16	475.6943	475.6943
649.96	473.8481	473.8481
650.75	474.4047	474.4047
651.54	475.8429	475.8429
652.33	475.4856	475.4856
653.12	473.0823	473.0823
653.92	466.8	466.8
654.71	452.8254	452.8254
655.5	434.5646	434.5646
656.29	423.9406	423.9406
657.09	426.8896	426.8896
657.88	439.9421	439.9421
658.67	452.4959	452.4959
659.46	458.5778	458.5778
660.25	461.3985	461.3985
661.04	463.5991	463.5991
661.84	464.5343	464.5343
662.63	463.6178	463.6178
663.42	462.0492	462.0492
664.21	461.4728	461.4728
665	461.5811	461.5811
665.79	461.5835	461.5835
666.59	461.0038	461.0038
667.38	460.4238	460.4238
668.17	460.526	460.526
668.96	460.2222	460.2222
669.75	458.9901	458.9901
670.54	456.7025	456.7025
671.33	454.604	454.604
672.12	453.8031	453.8031
672.91	453.9806	453.9806
673.7	453.8981	453.8981
674.49	453.1826	453.1826
675.29	452.3425	452.3425
676.08	451.7592	451.7592
676.87	451.3969	451.3969
677.66	450.4571	450.4571
678.45	448.9382	448.9382
679.24	447.3662	447.3662
680.03	445.4907	445.4907
680.82	443.844	443.844
681.61	442.3115	442.3115
682.4	440.3952	440.3952
683.19	437.2396	437.2396
683.98	433.4729	433.4729
684.77	428.7286	428.179
685.56	418.4109	429.0345
686.35	400.795	430.8079
687.14	385.5433	432.2074
687.93	381.8048	432.1864
688.72	386.7054	431.4492
689.5	391.6761	429.9998
690.29	395.2103	427.3437
691.08	398.8194	423.7076
691.87	402.6512	420.6377
692.66	405.972	418.96
693.45	407.8457	417.2485
694.24	408.1131	415.0217
695.03	407.1879	412.6326
695.82	406.07	410.6219
696.61	403.8717	408.294
697.4	400.7873	405.3972
698.18	398.5587	402.4452
698.97	397.2413	398.7367
699.76	395.0717	393.0655
700.55	391.5061	387.5271
701.34	388.2585	383.7687
702.13	386.4934	382.4023
702.92	386.4132	382.9411
703.7	387.4467	384.3746
704.49	388.4357	385.1531
705.28	387.6588	383.727
706.07	386.1483	382.1178
706.86	384.7442	380.8642
707.64	383.506	379.6751
708.43	381.6464	377.3269
709.22	380.1737	375.8567
710.01	379.5646	375.4111
710.79	378.3448	374.4716
711.58	376.0268	371.8343
712.37	374.1793	369.2951
713.16	373.6187	368.2247
713.94	373.2121	366.603
714.73	371.941	364.1761
715.52	369.8019	359.536
716.31	367.1232	351.1951
717.09	363.3425	340.1539
717.88	357.4753	328.6143
718.67	351.9426	320.7793
719.45	349.9811	319.4678
720.24	351.2037	324.8633
721.03	354.0643	334.3834
721.81	356.5565	340.6636
722.6	356.4163	338.7582
723.39	354.8928	332.6531
724.17	353.6772	329.2247
724.96	353.5218	329.4928
725.75	353.6018	330.6929
726.53	353.2988	331.0931
727.32	351.8605	329.7899
728.11	348.8383	327.9106
728.89	346.1951	326.7801
729.68	346.8151	328.6538
730.46	348.2826	331.5759
731.25	348.6246	334.1553
732.04	348.5937	337.5542
732.82	348.2596	340.6637
733.61	348.6743	343.4395
734.39	348.0761	343.8645
735.18	345.8746	341.7429
735.96	343.608	339.9122
736.75	342.1882	339.4536
737.53	340.1107	338.5329
738.32	336.0987	335.369
739.1	333.0194	333.3992
739.89	331.6845	332.9104
740.67	329.2725	331.1387
741.46	327.3198	329.9
742.24	328.1166	328.1166
743.03	329.6542	329.6542
743.81	329.1115	329.1115
744.6	327.4533	327.4533
745.38	327.4849	327.4849
746.17	327.2633	327.2633
746.95	326.1509	326.1509
747.74	324.0375	324.0375
748.52	321.0334	321.0334
749.3	318.2604	318.2604
750.09	316.3695	316.3695
750.87	314.5209	314.5209
751.66	313.1165	313.1165
752.44	312.121	312.121
753.22	311.8571	311.8571
754.01	311.5632	311.5632
754.79	309.1979	309.1979
755.58	306.5715	306.5715
756.36	304.8467	304.8467
757.14	303.1092	303.1092
757.93	296.1755	303.9335
758.71	267.7038	301.2731
759.49	207.5645	299.2954
760.28	157.5391	297.2458
761.06	161.5071	294.7361
761.84	187.3055	292.5693
762.63	197.6037	292.6449
763.41	202.1145	293.5521
764.19	213.5304	292.6315
764.97	228.6977	288.0068
765.76	242.6991	280.7244
766.54	256.2226	278.199
767.32	268.6184	281.0686
768.1	276.3827	282.7726
768.89	279.6995	281.909
769.67	280.9651	279.8723
770.45	281.2392	281.2392
771.23	280.3505	280.3505
772.02	280.04	280.04
772.8	280.5107	280.5107
773.58	279.6473	279.6473
774.36	277.0823	277.0823
775.14	276.0868	276.0868
775.92	276.7869	276.7869
776.71	276.1608	276.1608
777.49	274.6647	274.6647
778.27	273.8849	273.8849
779.05	272.6492	272.6492
779.83	271.2769	271.2769
780.61	271.0488	271.0488
781.39	272.0944	272.0944
782.18	271.7337	271.7337
782.96	268.7551	268.7551
783.74	267.0319	267.0319
784.52	266.6586	266.6586
785.3	266.5117	266.5117
786.08	266.4888	266.4888
786.86	265.5773	265.5773
787.64	263.5091	263.5091
788.42	261.7532	261.7532
789.2	260.9673	260.9673
789.98	260.1025	260.1025
790.76	258.0954	258.0954
791.54	254.8435	254.8435
792.32	251.6687	251.6687
793.1	249.2078	249.2078
793.88	248.1005	248.1005
794.66	248.858	248.858
795.44	249.6567	249.6567
796.22	249.3324	249.3324
797	249.5961	249.5961
797.78	249.6195	249.6195
798.56	248.1835	248.1835
799.34	246.0614	246.0614
800.12	243.8664	243.8664
800.9	242.3508	242.3508
801.68	241.8904	241.8904
802.46	241.5398	241.5398
803.24	240.6113	240.6113
804.01	238.1581	238.1581
804.79	235.22	235.22
805.57	234.2028	234.2028
806.35	234.9317	234.9317
807.13	235.1149	235.1149
807.91	232.5639	232.5639
808.69	228.6251	228.6251
809.47	226.5414	226.5414
810.24	227.6265	227.6265
811.02	229.3985	229.3985
811.8	229.1161	229.1161
812.58	226.8815	227.4473
813.36	223.6073	225.441
814.13	220.1355	222.968
814.91	218.1569	221.8444
815.69	217.2088	221.6781
816.47	216.3	221.376
817.24	214.0165	219.1313
818.02	210.6321	215.292
818.8	208.1952	211.709
819.58	207.4833	209.4176
820.35	208.6805	209.4031
821.13	209.6246	210.9661
821.91	207.2732	210.3965
822.69	203.9178	207.9708
823.46	202.8794	206.2176
824.24	203.7723	205.6825
825.02	206.0686	206.9534
825.79	207.8361	208.5817
826.57	206.6323	207.9008
827.35	203.6784	205.7318
828.12	200.8115	202.9362
828.9	199.59	201.0023
829.67	200.0894	200.3087
830.45	200.5412	200.0304
831.23	199.1746	198.5023
832	196.4	196.0548
832.78	193.106	192.7923
833.55	191.814	191.574
834.33	193.5599	193.5599
835.11	196.3373	196.3373
835.88	196.9944	196.9944
836.66	195.1921	195.1921
837.43	191.8773	191.8773
838.21	189.7826	189.7826
838.98	190.1099	190.1099
839.76	191.5985	191.5985
840.53	191.5396	191.5396
841.31	189.2028	189.2028
842.08	185.6734	185.6734
842.86	182.7509	182.7509
843.63	182.1137	182.1137
844.41	183.5253	183.5253
845.18	185.0489	185.0489
845.96	185.1519	185.1519
846.73	182.8237	182.8237
847.51	178.9042	178.9042
848.28	175.1318	175.1318
849.05	173.4743	173.4743
849.83	173.277	173.277
850.6	173.6448	173.6448
851.38	171.9275	171.9275
852.15	167.52	167.52
852.92	162.0209	162.0209
853.7	158.0302	158.0302
854.47	158.3437	158.3437
855.25	162.4541	162.4541
856.02	167.0436	167.0436
856.79	168.8279	168.8279
857.57	167.7725	167.7725
858.34	165.8227	165.8227
859.11	164.4191	164.4191
859.88	164.7523	164.7523
860.66	166.0567	166.0567
861.43	166.2767	166.2767
862.2	164.8989	164.8989
862.98	162.0874	162.0874
863.75	157.661	157.661
864.52	154.0374	154.0374
865.29	151.3816	151.3816
866.07	150.3074	150.3074
866.84	150.6491	150.6491
867.61	151.3412	151.3412
868.38	151.3287	151.3287
869.15	150.9631	150.9631
869.93	151.2508	151.2508
870.7	152.5853	152.5853
871.47	153.3091	153.3091
872.24	153.1809	153.1809
873.01	151.5087	151.5087
873.78	148.7309	148.7309
874.55	145.8535	145.8535
875.33	144.7302	144.7302
876.1	145.5827	145.5827
876.87	146.7496	146.7496
877.64	147.2469	147.2469
878.41	146.1136	146.1136
879.18	143.4813	143.4813
879.95	140.7679	140.7679
880.72	139.4926	139.4926
881.49	140.015	140.015
882.26	141.1784	141.1784
883.03	142.4187	142.4187
883.8	141.7848	141.7848
884.57	139.583	139.583
885.34	137.0674	137.0674
886.11	135.0078	135.0078
886.88	134.2818	134.2818
887.65	134.8229	134.8229
888.42	135.955	135.955
889.19	136.5809	136.5809
889.96	135.2728	135.2728
890.73	132.7091	132.7091
891.5	130.2915	130.2915
892.27	128.6391	128.6391
893.04	128.6325	128.6325
893.81	129.3931	129.3931
894.58	129.4291	128.2576
895.35	127.8647	127.5503
896.12	125.1246	125.7359
896.89	122.0702	123.4824
897.65	119.8391	121.8951
898.42	118.981	121.4192
899.19	118.795	121.3255
899.96	118.3935	120.6231
900.73	117.6753	119.5236
901.5	116.3618	117.9002
902.26	115.1447	116.3503
903.03	114.7158	115.6173
903.8	114.9585	115.542
904.57	115.4047	115.8323
905.34	115.7246	116.2709
906.1	115.4521	116.2158
906.87	114.0875	115.1636
907.64	112.0106	113.3194
908.41	109.8714	111.247
909.17	108.4035	109.709
909.94	107.9521	109.1512
910.71	108.1564	109.2439
911.48	108.5961	109.7519
912.24	108.5985	109.8915
913.01	107.9306	109.4689
913.78	106.6655	108.4534
914.54	105.112	106.9644
915.31	103.8454	105.6958
916.08	103.1605	104.9363
916.84	102.9455	104.6519
917.61	102.9741	104.4863
918.37	102.7123	104.0393
919.14	101.9692	103.0899
919.91	100.6753	101.4061
920.67	99.11286	99.56594
921.44	97.61385	97.87307
922.2	96.59875	96.86061
922.97	96.029	96.33762
923.74	95.77422	96.25645
924.5	95.44938	96.26137
925.27	94.71865	95.93733
926.03	93.49379	95.3672
926.8	91.74751	94.55627
927.56	89.72922	93.62883
928.33	87.74522	93.03965
929.09	85.86418	92.75398
929.86	83.99062	92.69604
930.62	81.82826	92.46828
931.39	79.40286	91.86899
932.15	76.73562	90.76389
932.91	74.17452	89.3347
933.68	72.06875	87.87301
934.44	70.76272	86.75392
935.21	70.22247	85.96813
935.97	70.18516	85.34729
936.74	70.44584	84.81963
937.5	70.66535	83.92606
938.26	70.58901	82.60458
939.03	70.20018	80.9267
939.79	69.65691	79.32588
940.55	68.95728	77.9238
941.32	68.46107	77.12978
942.08	67.93619	76.68147
942.84	67.39367	76.38869
943.61	66.77878	76.15833
944.37	66.00462	75.60336
945.13	65.13908	74.67526
945.9	64.42836	73.73382
946.66	64.00049	72.9203
947.42	63.83523	72.42824
948.18	63.93984	72.29659
948.95	64.10061	72.29048
949.71	64.0802	72.02189
950.47	63.69712	71.32663
951.23	63.0297	70.28497
951.99	62.22004	69.0457
952.76	61.50895	67.88283
953.52	61.10979	67.13584
954.28	61.06245	66.86631
955.04	61.10569	66.71415
955.8	61.1093	66.45338
956.56	60.99757	66.08488
957.33	60.67258	65.48621
958.09	60.21357	64.72432
958.85	59.78552	63.91267
959.61	59.59395	63.29458
960.37	59.57478	62.97165
961.13	59.67152	62.77021
961.89	59.73749	62.51666
962.65	59.53526	61.98726
963.41	59.12988	61.25579
964.17	58.52677	60.33623
964.93	57.96902	59.45282
965.69	57.61522	58.84221
966.45	57.51309	58.47192
967.21	57.5568	58.27679
967.97	57.52418	58.03872
968.73	57.11594	57.45763
969.49	56.45527	56.61054
970.25	55.82677	55.83974
971.01	55.31628	55.24669
971.77	54.99006	54.81627
972.53	54.78381	54.5748
973.29	54.40796	54.10212
974.05	53.81442	53.46887
974.81	53.09631	52.71619
975.57	52.40779	51.96265
976.33	51.84936	51.34575
977.09	51.55371	50.96659
977.85	51.32961	50.65441
978.6	50.97457	50.19298
979.36	50.44341	49.61914
980.12	49.84764	48.92512
980.88	49.4102	48.33017
981.64	49.15411	47.98594
982.39	48.95038	47.69646
983.15	48.52099	47.14815
983.91	47.82885	46.39429
984.67	47.18491	47.18491
985.43	46.83529	46.83529
986.18	46.61087	46.61087
986.94	46.12918	46.12918
987.7	45.35411	45.35411
988.46	44.62106	44.62106
989.21	44.2008	44.2008
989.97	43.89906	43.89906
990.73	43.20863	43.20863
991.48	42.34056	42.34056
992.24	41.71788	41.71788
993	41.14703	41.14703
993.75	40.27916	40.27916
994.51	39.31615	39.31615
995.27	38.57903	38.57903
996.02	2.475275	2.475275
996.78	0.1312699	0.1312699
997.54	0.07333479	0.07333479
998.29	0.0703549	0.0703549
949.79	5.109181	NaN
949.7936	5.253017	NaN
951.6845	5.65128	6.471581
953.5728	5.724494	6.450211
955.4586	6.206262	6.934409
957.3418	6.33059	7.009532
959.2225	6.839711	7.477504
961.1006	6.956826	7.526533
962.9762	7.426063	7.991504
964.8492	7.44562	7.9171
966.7198	7.992749	8.434235
968.5878	8.041755	8.382243
970.4534	8.469345	8.860148
972.3164	8.402791	8.797986
974.177	8.752235	9.189959
976.0351	8.660828	9.054981
977.8908	9.010318	9.422652
979.744	8.926957	9.220115
981.5947	9.23792	9.54994
983.443	9.115132	9.352543
985.2889	9.372623	9.372623
987.1323	9.152255	9.152255
988.9734	9.404423	9.404423
990.812	9.203651	9.203651
992.6483	9.374604	9.374604
994.4821	9.166411	9.166411
996.3136	9.310385	9.310385
998.1427	9.06681	9.06681
999.9695	9.225959	9.225959
1001.794	8.924638	8.924638
1003.616	9.009088	9.009088
1005.436	8.784697	8.784697
1007.253	9.037529	9.037529
1009.068	8.840453	8.840453
1010.881	9.011462	9.011462
1012.691	8.756405	8.756405
1014.499	8.870064	8.870064
1016.305	8.638445	8.638445
1018.109	8.8016	8.8016
1019.91	8.558447	8.558447
1021.709	8.71127	8.71127
1023.506	8.472753	8.472753
1025.301	8.656268	8.656268
1027.093	8.536505	8.536505
1028.883	8.685667	8.685667
1030.671	8.52455	8.52455
1032.456	8.70028	8.70028
1034.24	8.5381	8.5381
1036.021	8.739677	8.739677
1037.8	8.619314	8.619314
1039.577	8.84277	8.84277
1041.351	8.70077	8.70077
1043.124	8.865817	8.865817
1044.894	8.780565	8.780565
1046.662	9.021648	9.021648
1048.428	8.964595	8.964595
1050.192	9.209421	9.209421
1051.954	9.062206	9.062206
1053.714	9.328941	9.328941
1055.471	9.167449	9.167449
1057.226	9.318154	9.318154
1058.98	9.160669	9.160669
1060.731	9.347159	9.347159
1062.48	9.145709	9.145709
1064.227	9.279263	9.279263
1065.972	8.973243	8.973243
1067.715	9.007681	9.007681
1069.455	8.798705	8.798705
1071.194	8.915448	8.915448
1072.931	8.742104	8.742104
1074.666	8.855868	8.855868
1076.398	8.659997	8.659997
1078.129	8.704234	8.704234
1079.857	8.462763	8.462763
1081.584	8.536545	8.536545
1083.309	8.392168	8.392168
1085.031	8.566851	8.566851
1086.752	8.484213	8.484213
1088.47	8.632141	8.632141
1090.187	8.537701	8.537701
1091.902	8.660493	8.843298
1093.614	8.534302	8.657549
1095.325	8.767158	8.881125
1097.034	8.827559	8.85999
1098.741	9.089231	9.184298
1100.446	9.088729	9.151917
1102.149	9.385798	9.488546
1103.85	9.375909	9.472742
1105.549	9.615386	9.756659
1107.246	9.50212	9.700542
1108.942	9.586731	9.987366
1110.635	9.252562	9.812667
1112.327	9.102874	10.14053
1114.016	8.571873	10.02213
1115.704	8.431339	10.26499
1117.39	8.127385	10.13721
1119.074	8.051736	10.34484
1120.757	7.85129	10.23782
1122.437	7.844337	10.51514
1124.116	7.815549	10.32886
1125.792	8.132575	10.50172
1127.467	8.35246	10.38201
1129.14	8.77746	10.54637
1130.812	8.230041	10.44495
1132.481	7.98618	10.55055
1134.149	7.834097	10.39925
1135.815	8.280146	10.48361
1137.479	9.00996	10.38355
1139.141	9.353254	10.51867
1140.801	9.038234	10.30739
1142.46	8.905453	10.47032
1144.117	8.552944	10.3107
1145.772	8.546115	10.4822
1147.426	8.54351	10.35551
1149.078	8.785484	10.41994
1150.728	8.764579	10.23103
1152.376	9.036546	10.36637
1154.022	9.031257	10.11541
1155.667	9.324184	10.28214
1157.31	9.272971	10.04537
1158.951	9.451472	10.07102
1160.591	9.440703	9.859257
1162.229	9.625458	9.963549
1163.865	9.541214	9.759909
1165.5	9.609218	9.851382
1167.133	9.474903	9.650361
1168.764	9.573601	9.706337
1170.394	9.429992	9.581835
1172.022	9.42751	9.62354
1173.648	9.244818	9.427087
1175.272	9.257376	9.462398
1176.895	9.166293	9.294977
1178.517	9.130095	9.339177
1180.136	8.899387	9.148359
1181.754	8.874563	9.121336
1183.371	8.682112	8.880617
1184.985	8.716055	8.91806
1186.599	8.602728	8.740676
1188.21	8.565175	8.683598
1189.82	8.44208	8.546735
1191.428	8.616393	8.711276
1193.035	8.488712	8.543745
1194.64	8.483373	8.604697
1196.244	8.294226	8.385844
1197.846	8.347085	8.428296
1199.447	8.230736	8.389122
1201.045	8.314155	8.474639
1202.643	8.242283	8.348438
1204.238	8.283894	8.45446
1205.833	8.207365	8.334511
1207.425	8.217816	8.2873
1209.017	8.147874	8.195999
1210.606	8.266318	8.326796
1212.194	8.234023	8.296726
1213.781	8.384946	8.466995
1215.366	8.330024	8.358286
1216.949	8.413674	8.413674
1218.531	8.374247	8.374247
1220.112	8.448889	8.448889
1221.691	8.397274	8.420989
1223.268	8.439953	8.439953
1224.844	8.438293	8.438293
1226.419	8.506394	8.506394
1227.992	8.460473	8.460473
1229.564	8.573952	8.573952
1231.134	8.531387	8.531387
1232.702	8.651687	8.651687
1234.269	8.625564	8.625564
1235.835	8.640014	8.640014
1237.399	8.571959	8.571959
1238.962	8.591567	8.591567
1240.524	8.45782	8.45782
1242.084	8.591095	8.591095
1243.642	8.538856	8.538856
1245.199	8.560862	8.560862
1246.755	8.509311	8.509311
1248.309	8.572217	8.572217
1249.862	8.52669	8.52669
1251.413	8.567024	8.567024
1252.963	8.466932	8.466932
1254.512	8.478298	8.478298
1256.059	8.388585	8.388585
1257.605	8.354834	8.354834
1259.15	8.241434	8.419415
1260.693	8.200362	8.461746
1262.234	8.083307	8.395691
1263.775	8.068234	8.437267
1265.314	7.852216	8.445106
1266.851	7.840503	8.416789
1268.387	7.869599	8.416458
1269.922	7.983522	8.424663
1271.456	8.184354	8.353082
1272.988	8.254429	8.388619
1274.518	8.251652	8.346069
1276.048	8.322423	8.403307
1277.576	8.186891	8.276559
1279.103	8.022227	8.022227
1280.628	7.958357	7.958357
1282.152	7.950915	7.950915
1283.675	8.036073	8.036073
1285.197	8.199294	8.199294
1286.717	8.139866	8.139866
1288.236	8.149613	8.149613
1289.753	8.056041	8.056041
1291.27	8.095715	8.095715
1292.785	8.110727	8.110727
1294.298	8.093979	8.093979
1295.811	8.003324	8.003324
1297.322	7.991758	8.020661
1298.831	7.939081	7.977031
1300.34	7.887228	7.954865
1301.847	7.839954	7.896332
1303.353	7.80489	7.861676
1304.858	7.722997	7.788292
1306.361	7.711149	7.819334
1307.863	7.660296	7.791936
1309.364	7.585422	7.726447
1310.864	7.495487	7.684157
1312.362	7.412842	7.58127
1313.86	7.326201	7.527945
1315.355	7.306269	7.533533
1316.85	7.250371	7.470395
1318.343	7.214362	7.453597
1319.836	7.158938	7.393124
1321.327	7.172371	7.402682
1322.816	7.125352	7.302934
1324.305	7.096868	7.297873
1325.792	6.954173	7.21115
1327.278	6.807843	7.176123
1328.763	6.584938	7.113978
1330.247	6.496445	7.111663
1331.729	6.429185	7.000723
1333.21	6.411551	7.035888
1334.69	6.403978	6.968872
1336.169	6.354845	6.924048
1337.647	6.261197	6.887541
1339.123	6.217083	6.766954
1340.599	6.072808	6.744154
1342.073	5.875396	6.766885
1343.545	5.610263	6.707215
1345.017	5.036348	6.660174
1346.488	4.687132	6.566146
1347.957	4.280201	6.560764
1349.425	3.85106	6.437776
1350.892	3.415189	6.383583
1352.358	2.836162	6.261864
1353.823	2.538548	6.164577
1355.286	2.112628	6.056312
1356.748	1.88715	6.004817
1358.209	1.455728	5.894541
1359.669	1.17839	5.83466
1361.128	1.013623	5.76882
1362.586	1.021511	5.703111
1364.043	1.167306	5.684686
1365.498	1.169304	5.633206
1366.952	1.13628	5.510129
1368.405	1.044477	5.407472
1369.857	1.095438	5.258876
1371.308	1.429025	5.134095
1372.758	1.668242	4.93186
1374.207	2.049187	4.725213
1375.654	2.07832	4.45754
1377.1	1.905713	4.22628
1378.546	1.519185	4.027256
1379.99	1.121345	3.872157
1381.433	0.8260087	3.766591
1382.875	0.7875109	3.742544
1384.315	1.007092	3.768855
1385.755	1.374144	3.803843
1387.194	1.783607	3.889392
1388.631	2.050015	3.916118
1390.067	2.063822	3.995748
1391.503	1.9601	4.061431
1392.937	1.511009	4.063099
1394.37	1.558064	4.148095
1395.802	1.74184	4.248623
1397.232	1.652688	4.275905
1398.662	1.762994	4.341805
1400.091	1.89821	4.427081
1401.518	1.675034	4.471439
1402.945	1.906852	4.523015
1404.37	2.08099	4.552501
1405.794	2.03086	4.567824
1407.218	2.077526	4.596354
1408.64	2.169755	4.61545
1410.061	2.306443	4.605364
1411.481	2.291917	4.594386
1412.9	2.481474	4.632273
1414.318	2.638912	4.638405
1415.734	2.572241	4.676078
1417.15	2.639663	4.669447
1418.565	2.77907	4.70132
1419.978	2.726348	4.700541
1421.391	2.875311	4.733742
1422.802	3.109799	4.701709
1424.213	3.14885	4.703236
1425.622	3.116302	4.662003
1427.03	3.212682	4.671518
1428.437	3.04926	4.640587
1429.843	2.910305	4.663778
1431.248	2.945164	4.673471
1432.653	2.961712	4.692406
1434.055	3.028091	4.6988
1435.458	3.134786	4.751241
1436.858	3.17229	4.734688
1438.258	3.209993	4.741056
1439.657	3.278917	4.676853
1441.055	3.453772	4.665557
1442.451	3.381785	4.628112
1443.847	3.37659	4.669006
1445.242	3.482735	4.652633
1446.635	3.507057	4.701896
1448.028	3.421934	4.699324
1449.419	3.507205	4.699444
1450.81	3.53004	4.655219
1452.199	3.595171	4.634941
1453.588	3.868111	4.613908
1454.975	4.086218	4.63153
1456.361	4.114771	4.61705
1457.746	4.157466	4.659867
1459.131	4.109898	4.629094
1460.514	4.055934	4.636646
1461.896	3.8928	4.553835
1463.277	3.792436	4.586081
1464.657	3.670875	4.53275
1466.036	3.686735	4.567912
1467.415	3.53359	4.544277
1468.792	3.464574	4.53847
1470.168	3.406807	4.485056
1471.543	3.432769	4.458982
1472.917	3.527597	4.422799
1474.289	3.675481	4.421104
1475.661	3.692939	4.363548
1477.032	3.639788	4.350929
1478.402	3.590813	4.380892
1479.771	3.659239	4.397582
1481.139	3.668711	4.344549
1482.506	3.774265	4.375543
1483.871	3.771282	4.308049
1485.236	3.759406	4.290193
1486.6	3.715	4.210379
1487.963	3.775765	4.245947
1489.324	3.79803	4.198188
1490.685	3.959487	4.280916
1492.045	3.955666	4.236453
1493.403	4.002078	4.25287
1494.761	3.990154	4.197874
1496.118	4.03822	4.203574
1497.473	4.019297	4.14083
1498.828	4.095242	4.212327
1500.181	3.953414	4.099613
1501.534	3.873344	4.076179
1502.885	3.767791	3.940676
1504.236	3.800689	3.9156
1505.585	3.830454	3.91893
1506.934	3.963231	3.986756
1508.281	4.000903	3.995584
1509.628	4.042338	4.033988
1510.973	3.998372	3.987843
1512.318	4.047753	4.0338
1513.661	3.97265	3.949863
1515.003	4.018148	3.990591
1516.345	3.973531	3.948306
1517.685	3.990803	3.948728
1519.024	3.93366	3.898718
1520.363	3.954266	3.907845
1521.7	3.904085	3.904085
1523.036	3.969001	3.969001
1524.371	3.934996	3.934996
1525.706	3.972697	3.972697
1527.039	3.903563	3.903563
1528.371	3.931234	3.931234
1529.702	3.855987	3.855987
1531.032	3.892082	3.892082
1532.361	3.829594	3.829594
1533.69	3.865406	3.865406
1535.017	3.805417	3.805417
1536.343	3.844885	3.844885
1537.668	3.772462	3.772462
1538.992	3.802573	3.802573
1540.315	3.741314	3.741314
1541.637	3.788986	3.788986
1542.958	3.748604	3.748604
1544.277	3.790361	3.790361
1545.596	3.716709	3.716709
1546.914	3.756621	3.756621
1548.231	3.66903	3.66903
1549.547	3.702212	3.702212
1550.861	3.6261	3.6261
1552.175	3.639582	3.639582
1553.488	3.56056	3.56056
1554.799	3.597931	3.597931
1556.11	3.518118	3.518118
1557.42	3.557087	3.557087
1558.728	3.485359	3.485359
1560.036	3.50398	3.50398
1561.342	3.425533	3.425533
1562.647	3.479641	3.479641
1563.952	3.411186	3.411186
1565.255	3.468647	3.468647
1566.557	3.357035	3.350126
1567.859	3.365449	3.395571
1569.159	3.246294	3.347512
1570.458	3.232437	3.36983
1571.756	3.133458	3.303613
1573.053	3.130985	3.306461
1574.349	3.033222	3.212333
1575.644	3.067786	3.220464
1576.938	3.026078	3.1675
1578.231	3.083346	3.210556
1579.523	3.045477	3.178887
1580.813	3.10428	3.214973
1582.103	3.048037	3.124823
1583.392	3.107546	3.165517
1584.679	3.037202	3.071888
1585.966	3.039021	3.074294
1587.251	2.937536	2.979373
1588.535	2.948711	2.970953
1589.819	2.874543	2.907329
1591.101	2.951381	2.988534
1592.382	2.9102	2.950412
1593.662	2.971997	3.037689
1594.941	2.899826	2.971952
1596.219	2.927693	3.000601
1597.496	2.831135	2.933538
1598.771	2.852922	2.960941
1600.046	2.755535	2.886358
1601.32	2.780231	2.917567
1602.592	2.700238	2.822511
1603.863	2.754098	2.867893
1605.134	2.650773	2.742134
1606.403	2.702723	2.821515
1607.671	2.610749	2.734213
1608.938	2.662061	2.757908
1610.204	2.61182	2.683348
1611.469	2.677665	2.720378
1612.733	2.618541	2.630273
1613.995	2.663165	2.667455
1615.257	2.580688	2.583909
1616.517	2.600786	2.609334
1617.777	2.498016	2.511724
1619.035	2.530187	2.546597
1620.292	2.472597	2.479857
1621.548	2.530285	2.543394
1622.803	2.475318	2.480171
1624.056	2.541604	2.536298
1625.309	2.462465	2.444353
1626.561	2.527274	2.506109
1627.811	2.441825	2.427437
1629.06	2.464716	2.46377
1630.308	2.375239	2.375239
1631.555	2.396721	2.396721
1632.801	2.301117	2.301117
1634.046	2.333375	2.333375
1635.289	2.231781	2.231781
1636.532	2.244765	2.244765
1637.773	2.137657	2.137657
1639.013	2.160719	2.160719
1640.252	2.086661	2.086661
1641.49	2.100081	2.088857
1642.726	2.021605	2.0182
1643.962	2.044508	2.037059
1645.196	1.945923	1.957775
1646.429	1.963481	1.98043
1647.661	1.87676	1.888944
1648.892	1.867479	1.880894
1650.122	1.769221	1.785964
1651.35	1.756378	1.768582
1652.577	1.636371	1.643866
1653.803	1.61197	1.621269
1655.028	1.493932	1.493932
1656.252	1.457813	1.457813
1657.474	1.331236	1.331236
1658.696	1.281858	1.281858
1659.916	1.159578	1.159578
1661.135	1.102464	1.102464
1662.352	0.9804414	0.9804414
1663.569	0.9226535	0.9226535
1664.784	0.8189583	0.8288773
1665.998	0.771209	0.7851416
1667.211	0.686332	0.6922519
1668.423	0.6491982	0.6491982
1669.633	0.5731951	0.5731951
1670.842	0.5422532	0.5422532
1672.05	0.4744387	0.4744387
1673.257	0.4516622	0.4516622
1674.463	0.3939133	0.3939133
1675.667	0.3775449	0.3775449
1676.87	0.3340861	0.3340861
1678.072	0.3198066	0.3198066
1679.272	0.280854	0.280854
1680.471	0.2692054	0.2692054
1681.669	0.2375826	0.2375826
1682.866	0.2320454	0.2320454
1684.062	0.2039811	0.2039811
1685.256	0.1983526	0.1983526
1686.449	0.1729901	0.1729901
1687.64	0.1693244	0.1693244
1688.831	0.1465725	0.1465725
1690.02	0.1445803	0.1445803
1691.208	0.1254156	0.1254156
1692.394	0.1248076	0.1248076
1693.58	0.1109268	0.1109268
1694.763	0.1084225	0.1084225
1695.946	0.09321327	0.09321327
1697.127	0.09384848	0.08958711
1698.307	0.08085036	0.08085036
1699.486	0.08252991	0.08252991
1700.664	0.07232801	0.07232801
1701.84	0.07123166	0.07123166
1703.015	0.0613889	0.0613889
1703.01	0.05678875	0.05678875
