Wavelength [nm]   original c0 (counts):    lamp-scaled c0   C0 from 20141002_VIS_C0_refined_Langley_on_C-130_calib_flight_screened_2x_wFORJcorrAODscreened_wunc.dat.
171.85	NaN	NaN
172.67	-3.100935e+12	NaN
173.48	-7.088467e+12	NaN
174.29	2.07461e+16	NaN
175.1	1.462358e+14	NaN
175.91	1.085838e+14	NaN
176.72	4.988857e+13	NaN
177.54	1.677688e+13	NaN
178.35	9.21428e+12	NaN
179.16	7.835826e+12	NaN
179.97	5.161781e+12	NaN
180.78	3.24783e+12	NaN
181.59	2.345192e+12	NaN
182.41	1.623366e+12	NaN
183.22	1.071753e+12	NaN
184.03	7.858339e+11	NaN
184.84	5.322344e+11	NaN
185.65	3.373829e+11	NaN
186.46	2.431627e+11	NaN
187.28	1.600864e+11	NaN
188.09	1.130863e+11	NaN
188.9	7.568749e+10	NaN
189.71	4.975863e+10	NaN
190.52	3.464334e+10	NaN
191.33	2.202786e+10	NaN
192.14	1.528063e+10	NaN
192.96	1.06048e+10	NaN
193.77	6.633703e+09	NaN
194.58	5.059541e+09	NaN
195.39	3.332254e+09	NaN
196.2	2.216205e+09	NaN
197.01	1.013368e+14	NaN
197.83	1.634739e+14	NaN
198.64	9.246522e+13	NaN
199.45	5.243703e+13	NaN
200.26	2.813719e+13	NaN
201.07	1.520673e+13	NaN
201.88	1.052333e+13	NaN
202.69	5.672593e+12	NaN
203.51	2.978019e+12	NaN
204.32	1.743578e+12	NaN
205.13	9.506535e+11	NaN
205.94	5.496147e+11	NaN
206.75	2.951016e+11	NaN
207.56	1.588384e+11	NaN
208.37	1.089734e+15	NaN
209.18	3.066428e+17	NaN
210	1.530949e+18	NaN
210.81	7.499361e+18	NaN
211.62	5.696592e+18	NaN
212.43	1.272526e+19	NaN
213.24	1.919743e+19	NaN
214.05	1.840651e+19	NaN
214.86	1.386174e+20	NaN
215.68	2.866267e+20	NaN
216.49	1.758397e+20	NaN
217.3	3.286775e+20	NaN
218.11	1.360982e+20	NaN
218.92	3.167668e+19	NaN
219.73	7.569338e+18	NaN
220.54	1.669699e+18	NaN
221.35	3.953466e+17	NaN
222.17	9.232968e+16	NaN
222.98	2.123994e+16	NaN
223.79	5.11673e+15	NaN
224.6	1.159088e+15	NaN
225.41	2.709848e+14	NaN
226.22	6.293858e+13	NaN
227.03	1.549873e+13	NaN
227.84	4.123159e+12	NaN
228.65	1.374044e+12	NaN
229.47	7.530564e+11	NaN
230.28	7.315513e+11	NaN
231.09	1.409888e+12	NaN
231.9	4.645973e+12	NaN
232.71	2.119682e+13	NaN
233.52	1.101896e+14	NaN
234.33	5.84799e+14	NaN
235.14	3.501453e+15	NaN
235.95	1.945974e+16	NaN
236.77	1.137449e+17	NaN
237.58	6.727669e+17	NaN
238.39	4.115549e+18	NaN
239.2	2.459415e+19	NaN
240.01	1.40902e+20	NaN
240.82	6.567696e+20	NaN
241.63	2.592495e+20	NaN
242.44	3.944042e+20	NaN
243.25	1.839525e+20	NaN
244.06	2.592832e+19	NaN
244.88	3.1217e+19	NaN
245.69	2.194639e+19	NaN
246.5	1.039203e+19	NaN
247.31	1.126146e+19	NaN
248.12	1.003449e+19	NaN
248.93	3.131088e+18	NaN
249.74	1.432986e+18	NaN
250.55	5.161829e+17	NaN
251.36	4.894978e+17	NaN
252.17	1.503964e+17	NaN
252.98	3.402976e+16	NaN
253.79	1.101025e+16	NaN
254.61	2.895464e+15	NaN
255.42	3.540858e+15	NaN
256.23	2.459735e+16	NaN
257.04	1.991526e+17	NaN
257.85	5.13245e+17	NaN
258.66	4.582696e+17	NaN
259.47	1.59482e+18	NaN
260.28	5.58423e+18	NaN
261.09	1.404054e+19	NaN
261.9	1.262666e+19	NaN
262.71	1.342633e+19	NaN
263.52	3.386559e+19	NaN
264.33	2.44481e+19	NaN
265.14	7.844264e+19	NaN
265.95	5.010125e+20	NaN
266.76	4.131123e+20	NaN
267.58	4.051112e+20	NaN
268.39	2.65582e+20	NaN
269.2	4.265631e+19	NaN
270.01	7.72687e+18	NaN
270.82	1.358114e+18	NaN
271.63	2.158085e+17	NaN
272.44	3.28814e+16	NaN
273.25	4.621926e+15	NaN
274.06	6.284144e+14	NaN
274.87	9.692264e+13	NaN
275.68	1.637726e+13	NaN
276.49	2.86995e+12	NaN
277.3	5.440117e+11	NaN
278.11	9.539794e+10	NaN
278.92	1.820356e+10	NaN
279.73	3.447206e+09	NaN
280.54	6.945527e+08	NaN
281.35	1.397943e+08	NaN
282.16	3.260238e+07	NaN
282.97	8179920	NaN
283.78	2413066	NaN
284.59	696418.8	NaN
285.4	206208.5	NaN
286.21	75412.83	NaN
287.02	27530.82	NaN
287.83	10080.65	NaN
288.64	4180.423	NaN
289.45	1817.12	NaN
290.26	843.1716	NaN
291.07	417.9335	NaN
291.88	211.5172	NaN
292.69	115.6655	NaN
293.5	70.20202	NaN
294.31	41.1113	NaN
295.12	25.55155	NaN
295.93	16.75213	NaN
296.74	11.49708	NaN
297.55	8.038854	NaN
298.36	5.688931	NaN
299.17	4.419992	NaN
299.98	3.295925	NaN
300.79	2.731817	8.239041
301.6	2.258341	7.995339
302.41	1.844555	8.425784
303.22	1.624506	8.563463
304.03	1.408388	8.508384
304.84	1.229827	7.936456
305.65	1.075784	7.738736
306.46	0.9662964	7.226917
307.27	0.8785843	7.080518
308.08	0.8204854	6.997304
308.89	0.7940129	6.584871
309.7	0.7182867	6.25115
310.51	0.664861	6.932566
311.32	0.6559657	7.508954
312.13	0.6184166	7.350298
312.94	0.5890692	7.301584
313.75	0.5764123	7.366984
314.56	0.5739541	6.973744
315.37	0.5473242	6.587552
316.18	0.550729	6.404036
316.98	0.5587539	6.802992
317.79	0.5387561	6.577847
318.6	0.5516887	6.416931
319.41	0.5501139	6.528975
320.22	0.5519751	6.751584
321.03	0.5563485	6.787038
321.84	0.5716232	6.424865
322.65	0.5965928	5.761523
323.46	0.5770663	5.216128
324.27	0.5899699	5.257158
325.08	0.6091578	5.530173
325.89	0.6178928	6.251453
326.7	0.6386619	6.978254
327.51	0.6590473	6.881511
328.31	0.663701	7.27751
329.12	0.7189937	7.798152
329.93	0.7387639	7.618053
330.74	0.7622717	7.083662
331.55	0.827685	6.954477
332.36	0.9127087	6.989964
333.17	1.098591	6.769053
333.98	1.448043	7.048659
334.79	2.053535	8.050207
335.6	2.976148	8.746404
336.4	4.294363	9.791871
337.21	6.587869	12.04652
338.02	9.634199	15.58522
338.83	13.51606	19.8072
339.64	17.83984	24.47448
340.45	21.43872	28.37913
341.26	24.72383	31.36465
342.07	28.51265	35.49354
342.87	31.52093	38.75753
343.68	32.11832	38.81814
344.49	33.66675	39.72419
345.3	37.60732	44.47172
346.11	41.06827	48.06268
346.92	43.30467	50.73353
347.73	44.80656	52.61874
348.53	46.40355	54.44219
349.34	49.48559	58.11145
350.15	54.3605	64.43477
350.96	57.35481	67.40746
351.77	57.32856	67.11951
352.58	58.76334	69.16114
353.39	64.45164	76.48923
354.19	70.97501	83.8879
355	73.49778	86.06366
355.81	71.87223	82.93886
356.62	67.42035	77.07349
357.43	63.56779	72.07857
358.24	63.38874	72.45369
359.04	71.93651	83.81816
359.85	82.334	95.58011
360.66	83.04658	94.97586
361.47	82.2135	94.463
362.28	87.03453	100.1625
363.08	92.04668	105.6563
363.89	95.09889	109.278
364.7	100.3282	115.0151
365.51	109.6516	125.5978
366.32	116.9776	132.5381
367.12	117.6878	132.1874
367.93	116.0587	129.5048
368.74	118.3698	131.6076
369.55	123.4168	137.1427
370.36	124.5528	138.0573
371.16	123.3161	137.196
371.97	120.0655	133.3403
372.78	113.4692	126.3482
373.59	107.6966	119.9156
374.39	108.0921	121.0138
375.2	116.3038	130.5179
376.01	126.8738	142.3269
376.82	138.6191	155.4142
377.63	151.3878	169.6299
378.43	153.9346	171.3455
379.24	146.5909	162.3804
380.05	144.2772	160.4306
380.86	143.2655	159.1093
381.66	129.7934	143.078
382.47	111.2054	122.1642
383.28	104.1757	115.3288
384.08	114.3043	127.5964
384.89	128.8862	143.4277
385.7	135.0408	148.9783
386.51	136.7449	150.2458
387.31	138.1676	151.1251
388.12	141.5374	154.8683
388.93	151.336	166.2543
389.74	165.9493	182.1538
390.54	177.4742	193.6234
391.35	177.5423	190.8458
392.16	157.6295	166.5026
392.96	130.1316	137.8923
393.77	127.6534	138.4436
394.58	152.9328	164.9786
395.38	168.4693	177.747
396.19	157.4953	164.7122
397	153.7664	163.8663
397.81	184.0834	197.4763
398.61	225.8479	239.7989
399.42	252.2809	266.8018
400.23	265.8118	281.2922
401.03	275.5518	290.0982
401.84	282.71	296.696
402.65	284.7639	298.0096
403.45	283.409	296.4677
404.26	282.1397	294.3888
405.07	280.7757	292.666
405.87	279.492	291.1256
406.68	281.0371	292.4232
407.49	288.7132	299.1935
408.29	299.1587	307.2743
409.1	302.376	308.6855
409.9	299.836	306.8797
410.71	304.9952	312.9914
411.52	318.2487	325.4999
412.32	327.2799	333.0498
413.13	329.689	335.0915
413.94	331.1337	335.7842
414.74	333.6934	337.4483
415.55	337.0151	339.283
416.35	338.8681	340.0659
417.16	336.7078	337.846
417.97	333.5449	334.7774
418.77	333.338	335.6088
419.58	336.518	340.3956
420.38	342.695	348.428
421.19	347.039	353.4668
422	345.03	352.4254
422.8	340.7995	349.9244
423.61	340.9458	351.1548
424.41	343.9129	354.0465
425.22	344.6901	355.1073
426.03	342.5246	353.5738
426.83	339.2563	350.0519
427.64	335.0996	344.861
428.44	326.2253	334.6392
429.25	309.1719	318.2478
430.05	293.7496	307.578
430.86	299.1483	315.9826
431.66	324.7371	340.7581
432.47	349.4779	363.7585
433.28	358.648	374.5182
434.08	361.9107	380.9073
434.89	371.3462	391.9877
435.69	385.3098	404.812
436.5	392.3279	411.1337
437.3	387.266	407.7693
438.11	378.6527	402.2416
438.91	377.1915	403.2433
439.72	384.5543	411.5132
440.52	397.298	424.6971
441.33	410.3059	438.4004
442.13	421.3024	450.5989
442.94	428.3311	458.2129
443.74	431.2014	461.0782
444.55	430.3732	459.9468
445.35	428.2054	457.8197
446.16	430.5426	459.8526
446.96	438.7545	467.7578
447.77	449.398	477.8858
448.57	457.9958	488.1317
449.38	466.0901	498.2093
450.18	474.3895	505.8981
450.99	477.9072	507.8815
451.79	472.2549	502.3375
452.6	462.9609	493.7282
453.4	458.3002	489.8796
454.2	460.2319	491.6137
455.01	467.0214	496.2372
455.81	474.3406	501.0676
456.62	480.0658	503.9308
457.42	482.2455	503.8765
458.23	481.0686	501.7868
459.03	480.4626	500.7057
459.83	483.6263	503.0193
460.64	489.7503	507.4727
461.44	496.2008	512.6076
462.25	499.9789	514.5625
463.05	499.2832	512.9656
463.86	495.8899	508.6119
464.66	492.7823	504.549
465.46	490.4054	501.8489
466.27	489.5325	500.7766
467.07	490.7259	502.1013
467.87	493.3429	504.135
468.68	495.7405	505.4533
469.48	496.3217	506.7016
470.29	497.576	507.8973
471.09	502.6263	512.4232
471.89	509.4537	517.9713
472.7	515.7227	522.9101
473.5	520.3065	526.6441
474.3	522.9672	529.5541
475.11	524.8579	531.6733
475.91	526.9314	533.9134
476.71	530.3672	537.2247
477.52	535.4212	542.3847
478.32	540.4154	546.6424
479.12	543.7079	549.9977
479.93	545.5886	552.2106
480.73	547.7199	554.2949
481.53	548.4129	554.9471
482.34	546.9175	552.9837
483.14	542.2164	547.4939
483.94	531.9785	536.642
484.75	513.6401	521.4551
485.55	493.9783	506.2316
486.35	484.132	498.9134
487.16	487.4382	502.408
487.96	501.2645	513.465
488.76	517.6102	525.8499
489.56	528.1364	528.1364
490.37	531.0322	531.0322
491.17	529.2479	529.2479
491.97	526.2525	526.2525
492.77	526.3837	526.3837
493.58	531.4849	531.4849
494.38	537.0533	537.0533
495.18	540.0378	540.0378
495.98	541.0084	541.0084
496.79	538.2446	538.2446
497.59	534.0173	534.0173
498.39	529.8742	529.8742
499.19	524.455	524.455
500	518.5832	518.5832
500.8	514.2004	514.2004
501.6	512.5412	512.5412
502.4	514.3815	514.3815
503.2	518.1411	518.1411
504.01	523.4771	523.4771
504.81	529.1606	529.1606
505.61	532.9493	532.9493
506.41	533.3667	533.3667
507.21	530.9187	530.9187
508.02	528.0763	528.0763
508.82	526.7162	526.7162
509.62	527.139	527.139
510.42	528.1569	528.1569
511.22	526.9479	526.9479
512.02	523.2359	523.2359
512.83	517.7869	517.7869
513.63	512.1203	512.1203
514.43	507.0188	507.0188
515.23	498.6715	498.6715
516.03	485.8759	485.8759
516.83	473.9632	473.9632
517.63	467.6134	467.6134
518.44	471.2885	471.2885
519.24	482.4408	482.4408
520.04	493.8843	493.8843
520.84	502.1273	502.1273
521.64	505.5214	505.5214
522.44	507.8427	507.8427
523.24	511.5279	511.5279
524.04	514.6108	514.6108
524.84	513.5737	513.5737
525.64	506.5214	506.5214
526.45	499.0897	499.0897
527.25	498.5377	498.5377
528.05	505.2833	505.2833
528.85	516.2159	516.2159
529.65	525.9387	525.9387
530.45	529.7388	529.7388
531.25	527.351	527.351
532.05	522.6355	522.6355
532.85	518.6265	518.6265
533.65	518.3869	518.3869
534.45	522.139	522.139
535.25	525.5991	525.5991
536.05	526.0873	526.0873
536.85	524.8519	524.8519
537.65	522.3295	522.3295
538.45	518.6686	518.6686
539.25	514.4514	514.4514
540.05	511.1105	511.1105
540.85	510.1383	510.1383
541.65	511.8866	511.8866
542.45	515.9668	515.9668
543.25	519.9693	519.9693
544.05	522.7196	522.7196
544.85	524.3313	524.3313
545.65	523.9524	523.9524
546.45	521.3853	521.3853
547.25	518.5519	518.5519
548.05	516.8108	516.8108
548.85	515.9272	515.9272
549.65	515.9081	515.9081
550.45	515.6483	515.6483
551.25	514.9167	514.9167
552.05	514.3983	514.3983
552.84	514.5267	514.5267
553.64	516.05	516.05
554.44	516.7257	516.7257
555.24	515.0239	515.0239
556.04	512.0925	512.0925
556.84	508.1064	508.1064
557.64	502.3475	502.3475
558.44	497.8818	497.8818
559.24	497.414	497.414
560.04	498.0393	498.0393
560.83	500.3223	500.3223
561.63	504.8648	504.8648
562.43	507.9447	507.9447
563.23	509.167	509.167
564.03	509.8563	509.8563
564.83	509.4806	509.4806
565.63	508.6211	508.6211
566.42	508.6689	508.6689
567.22	511.3811	511.3811
568.02	514.0542	514.0542
568.82	515.0586	515.0586
569.62	514.4933	514.4933
570.42	513.736	513.736
571.21	517.0356	517.0356
572.01	523.7852	523.7852
572.81	530.2674	530.2674
573.61	533.8717	533.8717
574.41	532.1109	532.1109
575.2	528.5127	528.5127
576	525.4752	525.4752
576.8	521.8632	521.8632
577.6	518.6765	518.6765
578.39	516.2378	516.2378
579.19	514.4567	514.4567
579.99	514.3365	514.3365
580.79	515.2694	515.2694
581.58	516.046	516.046
582.38	516.0933	516.0933
583.18	515.2116	515.2116
583.98	512.2859	512.2859
584.77	507.8737	507.8737
585.57	504.2901	504.2901
586.37	501.7726	501.7726
587.16	497.686	497.686
587.96	490.3175	490.3175
588.76	482.9124	482.9124
589.55	479.8073	479.8073
590.35	482.2574	482.2574
591.15	488.7933	488.7933
591.95	494.3259	494.3259
592.74	496.4726	496.4726
593.54	496.4717	496.4717
594.33	495.8189	495.8189
595.13	495.4101	495.4101
595.93	495.2035	495.2035
596.72	494.4239	494.4239
597.52	493.3117	493.3117
598.32	491.6921	491.6921
599.11	489.7816	489.7816
599.91	487.9028	487.9028
600.71	486.1784	486.1784
601.5	485.0854	485.0854
602.3	486.2469	486.2469
603.09	488.8752	488.8752
603.89	491.5635	491.5635
604.69	492.7027	492.7027
605.48	492.1326	492.1326
606.28	490.8536	490.8536
607.07	488.8307	488.8307
607.87	486.3745	486.3745
608.66	483.4611	483.4611
609.46	480.6876	480.6876
610.25	478.8404	478.8404
611.05	477.6885	477.6885
611.85	475.8791	475.8791
612.64	473.8284	473.8284
613.44	471.9854	471.9854
614.23	470.098	470.098
615.03	467.346	467.346
615.82	464.8033	464.8033
616.62	464.1846	464.1846
617.41	465.6741	465.6741
618.21	468.9479	468.9479
619	472.3431	472.3431
619.8	474.0623	474.0623
620.59	473.8713	473.8713
621.39	472.329	472.329
622.18	469.159	469.159
622.97	465.4212	465.4212
623.77	461.7698	461.7698
624.56	458.7077	458.7077
625.36	457.7759	457.7759
626.15	457.6955	457.6955
626.95	458.0377	458.0377
627.74	457.4532	457.4532
628.53	455.4867	455.4867
629.33	452.8279	452.8279
630.12	450.4066	450.4066
630.92	448.1062	448.1062
631.71	447.2039	447.2039
632.5	446.7955	446.7955
633.3	446.6284	446.6284
634.09	446.1654	446.1654
634.89	444.6858	444.6858
635.68	443.4798	443.4798
636.47	443.0626	443.0626
637.27	443.2435	443.2435
638.06	442.5703	442.5703
638.85	439.6318	439.6318
639.65	435.4769	435.4769
640.44	431.3749	431.3749
641.23	428.6391	428.6391
642.03	427.6305	427.6305
642.82	427.369	427.369
643.61	426.3442	426.3442
644.41	424.5518	424.5518
645.2	422.0806	422.0806
645.99	420.4128	420.4128
646.78	419.4889	419.4889
647.58	418.3879	418.3879
648.37	415.5554	415.5554
649.16	412.0548	412.0548
649.96	410.5739	410.5739
650.75	411.7175	411.7175
651.54	413.2491	413.2491
652.33	413.0791	413.0791
653.12	411.4657	411.4657
653.92	406.7181	406.7181
654.71	395.0263	395.0263
655.5	378.7748	378.7748
656.29	369.4312	369.4312
657.09	373.4539	373.4539
657.88	386.5845	386.5845
658.67	397.7354	397.7354
659.46	402.4872	402.4872
660.25	404.5465	404.5465
661.04	406.0672	406.0672
661.84	406.5988	406.5988
662.63	405.6726	405.6726
663.42	404.3762	404.3762
664.21	404.1374	404.1374
665	404.3063	404.3063
665.79	403.9498	403.9498
666.59	402.8253	402.8253
667.38	401.9872	401.9872
668.17	402.0238	402.0238
668.96	401.8484	401.8484
669.75	400.7125	400.7125
670.54	398.5453	398.5453
671.33	396.4871	396.4871
672.12	395.7017	395.7017
672.91	396.1034	396.1034
673.7	396.2352	396.2352
674.49	395.5742	395.5742
675.29	394.6207	394.6207
676.08	394.0443	394.0443
676.87	393.7099	393.7099
677.66	393.0514	393.0514
678.45	392.0691	392.0691
679.24	390.9547	390.9547
680.03	389.5271	389.5271
680.82	388.0674	388.0674
681.61	386.5612	386.5612
682.4	384.6302	384.6302
683.19	381.4857	381.4857
683.98	377.79	377.79
684.77	373.6433	373.6433
685.56	365.1852	369.4962
686.35	350.0651	371.0088
687.14	336.5129	372.1981
687.93	333.1913	372.1011
688.72	336.946	371.3019
689.5	340.4355	370.1659
690.29	343.3042	368.0163
691.08	346.4525	364.8683
691.87	349.6552	362.2778
692.66	352.4287	360.7041
693.45	354.1035	359.5028
694.24	354.3385	357.8675
695.03	353.4715	355.8671
695.82	352.7503	354.2645
696.61	351.1029	351.1029
697.4	348.6067	348.6067
698.18	347.0945	347.0945
698.97	346.4864	346.4864
699.76	344.7323	344.7323
700.55	341.6256	341.6256
701.34	338.9499	338.9499
702.13	337.6236	337.6236
702.92	337.8667	337.8667
703.7	338.957	338.957
704.49	339.9785	339.9785
705.28	339.2037	339.2037
706.07	337.7125	337.7125
706.86	336.5386	336.5386
707.64	335.5787	335.5787
708.43	333.8221	333.8221
709.22	332.2157	332.2157
710.01	331.6844	331.6844
710.79	330.7921	330.7921
711.58	329.073	329.073
712.37	327.7278	327.7278
713.16	327.2502	327.2502
713.94	326.5174	326.5174
714.73	325.1703	325.1703
715.52	323.7497	323.7497
716.31	322.6866	322.6866
717.09	321.416	321.416
717.88	318.3487	318.3487
718.67	314.8878	314.8878
719.45	313.5013	313.5013
720.24	313.6164	313.6164
721.03	314.162	314.162
721.81	314.839	314.839
722.6	314.958	314.958
723.39	315.2184	315.2184
724.17	315.3227	315.3227
724.96	315.1543	315.1543
725.75	314.5112	314.5112
726.53	313.7477	313.7477
727.32	312.4177	312.4177
728.11	309.5366	309.5366
728.89	307.0003	307.0003
729.68	307.3307	307.3307
730.46	308.1784	308.1784
731.25	307.8286	307.8286
732.04	306.9254	306.9254
732.82	305.8597	305.8597
733.61	305.7434	305.7434
734.39	304.792	304.792
735.18	302.4704	302.4704
735.96	300.2937	300.2937
736.75	299.0432	299.0432
737.53	297.2349	297.2349
738.32	293.6532	293.6532
739.1	290.7798	290.7798
739.89	289.227	289.227
740.67	286.61	286.61
741.46	284.6592	284.6592
742.24	285.3398	285.3398
743.03	286.7472	286.7472
743.81	286.1911	286.1911
744.6	284.713	284.713
745.38	284.5517	284.5517
746.17	284.188	284.188
746.95	283.3813	283.3813
747.74	281.9392	281.9392
748.52	279.75	279.75
749.3	277.8881	277.8881
750.09	276.6837	276.6837
750.87	275.2962	275.2962
751.66	274.213	274.213
752.44	273.661	273.661
753.22	274.0158	274.0158
754.01	274.1141	274.1141
754.79	272.0288	272.0288
755.58	269.5978	269.5978
756.36	268.0709	268.0709
757.14	266.8023	266.8023
757.93	261.6311	264.2985
758.71	239.1748	261.9717
759.49	189.2532	260.1532
760.28	146.5859	258.319
761.06	148.7208	256.126
761.84	169.4258	254.0676
762.63	177.7716	254.1879
763.41	182.0438	255.1432
764.19	192.6748	254.487
764.97	206.1782	250.4982
765.76	217.9782	244.2793
766.54	229.0553	242.2752
767.32	239.008	245.0442
768.1	244.5836	246.6888
768.89	246.4459	245.8846
769.67	246.825	243.965
770.45	246.4891	246.4891
771.23	245.3988	245.3988
772.02	245.149	245.149
772.8	245.7817	245.7817
773.58	245.2101	245.2101
774.36	243.1179	243.1179
775.14	242.5093	242.5093
775.92	243.3387	243.3387
776.71	242.8075	242.8075
777.49	241.3805	241.3805
778.27	240.5749	240.5749
779.05	239.5673	239.5673
779.83	238.6068	238.6068
780.61	238.5034	238.5034
781.39	239.3092	239.3092
782.18	238.7497	238.7497
782.96	236.1394	236.1394
783.74	234.8588	234.8588
784.52	234.7899	234.7899
785.3	234.7361	234.7361
786.08	234.7153	234.7153
786.86	234.2045	234.2045
787.64	232.8757	232.8757
788.42	231.5588	231.5588
789.2	230.6681	230.6681
789.98	229.5759	229.5759
790.76	227.6054	227.6054
791.54	224.7386	224.7386
792.32	221.8654	221.8654
793.1	219.3906	219.3906
793.88	218.0054	218.0054
794.66	218.4077	218.4077
795.44	219.0024	219.0024
796.22	218.6765	218.6765
797	218.7975	218.7975
797.78	218.5042	218.5042
798.56	216.9146	216.9146
799.34	214.9264	214.9264
800.12	213.0508	213.0508
800.9	211.8058	211.8058
801.68	211.4147	211.4147
802.46	211.0792	211.0792
803.24	210.311	210.311
804.01	208.1615	208.1615
804.79	205.6867	205.6867
805.57	205.0759	205.0759
806.35	206.0095	206.0095
807.13	206.3221	206.3221
807.91	204.0995	204.0995
808.69	200.6507	200.6507
809.47	198.8091	198.8091
810.24	199.7852	199.7852
811.02	201.5323	201.5323
811.8	201.7378	201.7378
812.58	200.5258	198.8211
813.36	198.4984	196.9945
814.13	196.2364	194.7968
814.91	195.2373	193.7317
815.69	194.8122	193.6991
816.47	194.0436	193.4881
817.24	191.7107	191.6939
818.02	188.4077	188.3536
818.8	185.791	185.4609
819.58	184.5461	183.4905
820.35	185.2454	183.5951
821.13	186.5701	184.916
821.91	185.6708	184.5828
822.69	183.4029	182.6113
823.46	182.0587	181.1652
824.24	181.7396	180.6767
825.02	182.9179	181.8864
825.79	184.0413	183.4953
826.57	183.0308	183.1726
827.35	180.7759	181.4256
828.12	178.377	179.1483
828.9	177.098	177.4633
829.67	177.2716	176.8574
830.45	177.6466	176.5736
831.23	176.397	175.3771
832	173.7144	173.0283
832.78	170.47	170.1589
833.55	168.9879	168.9572
834.33	170.3327	170.3327
835.11	172.6593	172.6593
835.88	173.2331	173.2331
836.66	171.7317	171.7317
837.43	168.85	168.85
838.21	167.0658	167.0658
838.98	167.411	167.411
839.76	168.7705	168.7705
840.53	168.6954	168.6954
841.31	166.6007	166.6007
842.08	163.4461	163.4461
842.86	160.9219	160.9219
843.63	160.4787	160.4787
844.41	161.7461	161.7461
845.18	163.0196	163.0196
845.96	162.9247	162.9247
846.73	160.665	160.665
847.51	157.1168	157.1168
848.28	153.6925	153.6925
849.05	152.1709	152.1709
849.83	152.0435	152.0435
850.6	152.4612	152.4612
851.38	151.0254	151.0254
852.15	147.1809	147.1809
852.92	142.5034	142.5034
853.7	139.2136	139.2136
854.47	139.8094	139.8094
855.25	143.7094	143.7094
856.02	147.7827	147.7827
856.79	149.192	149.192
857.57	148.0274	148.0274
858.34	146.0763	146.0763
859.11	144.7193	144.7193
859.88	144.9762	144.9762
860.66	146.1029	146.1029
861.43	146.2534	146.2534
862.2	144.9272	144.9272
862.98	142.4246	142.4246
863.75	138.4374	138.4374
864.52	135.2104	135.2104
865.29	132.9696	132.9696
866.07	132.1927	132.1927
866.84	132.6578	132.6578
867.61	133.4479	133.4479
868.38	133.5649	133.5649
869.15	133.2197	133.2197
869.93	133.4278	133.4278
870.7	134.565	134.565
871.47	135.223	135.223
872.24	135.2069	135.2069
873.01	133.8337	133.8337
873.78	131.4201	131.4201
874.55	128.9022	128.9022
875.33	127.9284	127.9284
876.1	128.6854	128.6854
876.87	129.6896	129.6896
877.64	130.114	130.114
878.41	129.1013	129.1013
879.18	126.7539	126.7539
879.95	124.3832	124.3832
880.72	123.3051	123.3051
881.49	123.815	123.815
882.26	124.8325	124.8325
883.03	125.9511	125.9511
883.8	125.2618	125.2618
884.57	123.2492	123.2492
885.34	120.9708	120.9708
886.11	119.2434	119.2434
886.88	118.7563	118.7563
887.65	119.4365	119.4365
888.42	120.6163	120.6163
889.19	121.2869	121.2869
889.96	120.1445	120.1445
890.73	117.8939	117.8939
891.5	115.8266	115.8266
892.27	114.4379	114.4379
893.04	114.5922	114.5922
893.81	115.5315	115.5315
894.58	115.8892	114.5475
895.35	114.928	113.9616
896.12	112.9184	112.4389
896.89	110.6232	110.5446
897.65	109.0054	109.0735
898.42	108.5418	108.6492
899.19	108.5096	108.4843
899.96	108.0517	107.942
900.73	107.1286	107.0765
901.5	105.4893	105.7351
902.26	103.9789	104.5212
903.03	103.2148	103.8757
903.8	103.1965	103.8825
904.57	103.5388	104.0831
905.34	103.8915	104.4487
906.1	103.8381	104.4291
906.87	102.8359	103.5811
907.64	101.145	102.0321
908.41	99.33872	100.276
909.17	98.12027	98.91735
909.94	97.77316	98.42093
910.71	98.00119	98.57373
911.48	98.42323	99.05103
912.24	98.43072	99.28045
913.01	97.80099	98.98038
913.78	96.64922	98.05245
914.54	95.2531	96.77512
915.31	94.09724	95.56118
916.08	93.45262	94.84919
916.84	93.19853	94.48514
917.61	93.14193	94.34983
918.37	92.7555	93.90082
919.14	91.89659	92.95512
919.91	90.49117	91.51314
920.67	88.91786	89.8183
921.44	87.47472	88.2706
922.2	86.51241	87.21712
922.97	86.09286	86.60204
923.74	86.00317	86.48556
924.5	85.93965	86.49141
925.27	85.53394	86.25316
926.03	84.77267	85.77355
926.8	83.66368	85.03428
927.56	82.47539	84.19518
928.33	81.49228	83.64061
929.09	80.71706	83.33165
929.86	79.9443	83.26204
930.62	78.89685	83.02937
931.39	77.51451	82.5056
932.15	75.70414	81.52474
932.91	73.8161	80.2945
933.68	72.09658	78.97812
934.44	70.88771	77.97358
935.21	70.20573	77.26465
935.97	69.8374	76.74476
936.74	69.59703	76.31193
937.5	69.25877	75.61845
938.26	68.58541	74.46271
939.03	67.68055	73.09186
939.79	66.73045	71.73448
940.55	65.81105	70.48971
941.32	65.22713	69.79012
942.08	64.81326	69.3653
942.84	64.47327	69.18658
943.61	64.11618	68.97635
944.37	63.56855	68.55533
945.13	62.84729	67.78401
945.9	62.22313	66.9541
946.66	61.83454	66.26639
947.42	61.64831	65.81713
948.18	61.73023	65.67952
948.95	61.83162	65.65038
949.71	61.77339	65.50395
950.47	61.31266	64.94304
951.23	60.59098	64.04855
951.99	59.72264	62.95987
952.76	59.01936	61.92312
953.52	58.60103	61.23201
954.28	58.52464	60.90508
955.04	58.54534	60.68606
955.8	58.50659	60.48436
956.56	58.30789	60.14974
957.33	57.8616	59.56067
958.09	57.28325	58.81119
958.85	56.73186	57.99775
959.61	56.39632	57.41585
960.37	56.21553	57.04863
961.13	56.14967	56.74838
961.89	56.05733	56.49479
962.65	55.70102	55.96139
963.41	55.12437	55.28501
964.17	54.37826	54.4268
964.93	53.70459	53.64479
965.69	53.23731	53.03624
966.45	52.99781	52.67021
967.21	52.91117	52.48395
967.97	52.75235	52.27424
968.73	52.22581	51.717
969.49	51.49267	50.99393
970.25	50.83744	50.28507
971.01	50.31564	49.71962
971.77	49.99822	49.36595
972.53	49.82052	49.14231
973.29	49.4839	48.79367
974.05	48.94212	48.27784
974.81	48.30396	47.68929
975.57	47.66345	47.04272
976.33	47.16687	46.50641
977.09	46.90789	46.21159
977.85	46.69021	45.97743
978.6	46.3112	45.63128
979.36	45.77001	45.11398
980.12	45.17855	44.53854
980.88	44.71694	44.06107
981.64	44.43438	43.76997
982.39	44.17175	43.50963
983.15	43.71618	43.08446
983.91	43.01728	42.45732
984.67	42.3793	42.3793
985.43	42.02086	42.02086
986.18	41.77794	41.77794
986.94	41.3195	41.3195
987.7	40.5713	40.5713
988.46	39.90079	39.90079
989.21	39.5028	39.5028
989.97	39.2084	39.2084
990.73	38.57705	38.57705
991.48	37.78638	37.78638
992.24	37.23858	37.23858
993	36.72108	36.72108
993.75	35.94444	35.94444
994.51	35.07907	35.07907
995.27	34.43025	34.43025
996.02	2.217562	2.217562
996.78	0.1095389	0.1095389
997.54	0.06822392	0.06822392
998.29	0.07042933	0.07042933
949.79	2.039933	NaN
949.7936	4.323623	NaN
951.6845	4.947418	4.826387
953.5728	4.979393	4.812745
955.4586	5.460119	5.177165
957.3418	5.367809	5.224478
959.2225	5.93533	5.566239
961.1006	5.976709	5.614497
962.9762	6.345981	5.954232
964.8492	6.057797	5.905596
966.7198	6.673348	6.29086
968.5878	6.50243	6.27649
970.4534	6.960205	6.606422
972.3164	6.988878	6.595166
974.177	7.261422	6.872575
976.0351	7.17264	6.804761
977.8908	7.266606	7.052829
979.744	7.027887	6.927297
981.5947	7.550075	7.157529
983.443	7.232825	7.036603
985.2889	7.591237	7.591237
987.1323	7.262635	7.262635
988.9734	7.454466	7.454466
990.812	7.248153	7.248153
992.6483	7.39815	7.39815
994.4821	7.38886	7.38886
996.3136	7.294547	7.294547
998.1427	7.097634	7.097634
999.9695	7.365228	7.365228
1001.794	7.222156	7.222156
1003.616	7.281628	7.281628
1005.436	7.114019	7.114019
1007.253	7.313502	7.313502
1009.068	6.838126	6.838126
1010.881	7.30231	7.30231
1012.691	7.074441	7.074441
1014.499	7.168853	7.168853
1016.305	7.001833	7.001833
1018.109	7.123051	7.123051
1019.91	6.812243	6.812243
1021.709	6.785116	6.785116
1023.506	6.841375	6.841375
1025.301	6.729608	6.729608
1027.093	6.884337	6.884337
1028.883	6.798307	6.798307
1030.671	6.876167	6.876167
1032.456	7.031042	7.031042
1034.24	6.885671	6.885671
1036.021	7.044854	7.044854
1037.8	6.945566	6.945566
1039.577	7.134852	7.134852
1041.351	7.002182	7.002182
1043.124	6.946816	6.946816
1044.894	7.001667	7.001667
1046.662	7.191365	7.191365
1048.428	7.23946	7.23946
1050.192	7.437895	7.437895
1051.954	7.012806	7.012806
1053.714	7.519617	7.519617
1055.471	7.151347	7.151347
1057.226	7.521826	7.521826
1058.98	7.397791	7.397791
1060.731	7.561793	7.561793
1062.48	7.257064	7.257064
1064.227	7.409789	7.409789
1065.972	7.256785	7.256785
1067.715	7.305801	7.305801
1069.455	7.112841	7.112841
1071.194	6.722058	6.722058
1072.931	7.070584	7.070584
1074.666	7.083198	7.083198
1076.398	6.978674	6.978674
1078.129	6.728079	6.728079
1079.857	6.692789	6.692789
1081.584	6.882938	6.882938
1083.309	6.635532	6.635532
1085.031	6.932213	6.932213
1086.752	6.744848	6.744848
1088.47	6.867216	6.867216
1090.187	6.912044	6.912044
1091.902	6.928079	6.741909
1093.614	6.902399	6.62942
1095.325	7.093809	6.779237
1097.034	6.863062	6.782331
1098.741	7.37559	7.022055
1100.446	7.380463	7.038918
1102.149	7.629779	7.270998
1103.85	7.629163	7.294945
1105.549	7.426247	7.463376
1107.246	7.673802	7.464343
1108.942	7.958561	7.668953
1110.635	7.32296	7.579731
1112.327	7.896478	7.805473
1114.016	7.639775	7.741145
1115.704	7.580716	7.908647
1117.39	7.433387	7.844338
1119.074	7.432136	7.952475
1120.757	7.092534	7.900389
1122.437	7.378869	8.071716
1124.116	7.162253	7.966142
1125.792	7.473888	8.063051
1127.467	7.458379	7.988149
1129.14	7.656856	8.092787
1130.812	7.488553	8.054183
1132.481	7.226669	8.09534
1134.149	7.283092	8.003824
1135.815	7.477275	8.039729
1137.479	7.771315	7.981097
1139.141	7.948893	8.045357
1140.801	7.539472	7.928632
1142.46	7.629972	8.024975
1144.117	7.402202	7.936796
1145.772	7.635739	8.041451
1147.426	7.585624	7.959923
1149.078	7.698579	7.961612
1150.728	7.535646	7.828768
1152.376	7.855829	7.90848
1154.022	7.399407	7.773114
1155.667	7.946614	7.879935
1157.31	7.772684	7.737104
1158.951	7.876701	7.746709
1160.591	7.718363	7.614938
1162.229	7.900491	7.673372
1163.865	7.765925	7.554342
1165.5	7.858958	7.598135
1167.133	7.648563	7.48701
1168.764	7.496467	7.508172
1170.394	7.688062	7.442783
1172.022	7.560618	7.438961
1173.648	7.518328	7.329375
1175.272	7.259131	7.31316
1176.895	7.235615	7.184498
1178.517	7.297158	7.175005
1180.136	7.148083	7.039317
1181.754	7.234734	7.001616
1183.371	7.059367	6.825806
1184.985	6.972399	6.827239
1186.599	6.98328	6.697313
1188.21	6.723481	6.622499
1189.82	6.738268	6.541633
1191.428	6.996425	6.666602
1193.035	6.871111	6.588906
1194.64	6.814641	6.623236
1196.244	6.476934	6.485481
1197.846	6.6123	6.50202
1199.447	6.66748	6.492961
1201.045	6.749141	6.553698
1202.643	6.463243	6.458736
1204.238	6.688791	6.513681
1205.833	6.628737	6.451294
1207.425	6.530744	6.408894
1209.017	6.590906	6.364714
1210.606	6.568457	6.427309
1212.194	6.605633	6.423758
1213.781	6.768259	6.550358
1215.366	6.532493	6.492371
1216.949	6.728898	6.728898
1218.531	6.680437	6.680437
1220.112	6.751133	6.751133
1221.691	6.649657	6.542723
1223.268	6.623228	6.623228
1224.844	6.744753	6.744753
1226.419	6.607854	6.607854
1227.992	6.79538	6.79538
1229.564	6.886434	6.886434
1231.134	6.704774	6.704774
1232.702	6.884965	6.884965
1234.269	6.841591	6.841591
1235.835	6.599897	6.599897
1237.399	6.680743	6.680743
1238.962	6.805587	6.805587
1240.524	6.682418	6.682418
1242.084	6.780853	6.780853
1243.642	6.758197	6.758197
1245.199	6.817872	6.817872
1246.755	6.642284	6.642284
1248.309	6.863705	6.863705
1249.862	6.643229	6.643229
1251.413	6.813993	6.813993
1252.963	6.707176	6.707176
1254.512	6.806098	6.806098
1256.059	6.552096	6.552096
1257.605	6.718318	6.718318
1259.15	6.621584	6.584449
1260.693	6.537063	6.630066
1262.234	6.411376	6.592359
1263.775	6.299573	6.583524
1265.314	6.307099	6.580577
1266.851	5.99941	6.542697
1268.387	6.359165	6.559507
1269.922	6.465618	6.562152
1271.456	6.45216	6.522215
1272.988	6.611939	6.543747
1274.518	6.663444	6.528631
1276.048	6.710572	6.543173
1277.576	6.428573	6.444766
1279.103	6.388378	6.388378
1280.628	6.373094	6.373094
1282.152	6.09224	6.09224
1283.675	6.444833	6.444833
1285.197	6.59167	6.59167
1286.717	6.297154	6.297154
1288.236	6.564888	6.564888
1289.753	6.451532	6.451532
1291.27	6.53143	6.53143
1292.785	6.519489	6.519489
1294.298	6.559234	6.559234
1295.811	6.274102	6.274102
1297.322	6.377913	6.270664
1298.831	6.421733	6.236486
1300.34	6.405306	6.212261
1301.847	6.3798	6.183908
1303.353	6.163494	6.140686
1304.858	6.026289	6.089677
1306.361	6.242826	6.110801
1307.863	6.152757	6.110735
1309.364	6.058853	6.074991
1310.864	6.06336	6.041151
1312.362	5.668412	5.963129
1313.86	5.986393	5.924657
1315.355	5.99426	5.928542
1316.85	5.954227	5.90283
1318.343	5.94699	5.891335
1319.836	5.754195	5.858755
1321.327	5.947136	5.86161
1322.816	5.654618	5.782123
1324.305	5.792888	5.770021
1325.792	5.787055	5.715127
1327.278	5.730233	5.672949
1328.763	5.58798	5.62667
1330.247	5.603773	5.619707
1331.729	5.241088	5.544808
1333.21	5.550484	5.566537
1334.69	5.365573	5.537638
1336.169	5.366039	5.493821
1337.647	5.404735	5.476841
1339.123	5.354671	5.388049
1340.599	5.024715	5.379897
1342.073	5.252097	5.392712
1343.545	5.121351	5.362554
1345.017	4.85853	5.310459
1346.488	4.385461	5.234535
1347.957	4.549619	5.22438
1349.425	4.340231	5.144911
1350.892	4.106531	5.096271
1352.358	3.783949	5.020682
1353.823	3.594974	4.921855
1355.286	3.364684	4.837614
1356.748	3.222399	4.800705
1358.209	2.83755	4.722625
1359.669	2.886086	4.659262
1361.128	2.547561	4.612887
1362.586	2.490929	4.555431
1364.043	2.449445	4.543218
1365.498	2.470277	4.482705
1366.952	3.955167	4.397289
1368.405	3.133036	4.309733
1369.857	2.459629	4.207219
1371.308	2.564441	4.089383
1372.758	3.131804	3.92422
1374.207	2.620894	3.747323
1375.654	2.469487	3.540185
1377.1	2.211334	3.357678
1378.546	1.897944	3.20328
1379.99	1.634889	3.072814
1381.433	2.161639	2.996872
1382.875	1.681646	2.975332
1384.315	1.808321	2.977621
1385.755	1.948892	3.009909
1387.194	2.191559	3.085837
1388.631	2.157466	3.107887
1390.067	2.303637	3.186804
1391.503	2.250503	3.22774
1392.937	2.20018	3.235041
1394.37	2.061236	3.317331
1395.802	2.217636	3.379842
1397.232	2.143469	3.397736
1398.662	2.175885	3.451312
1400.091	2.384619	3.516685
1401.518	2.263605	3.550945
1402.945	2.435072	3.59511
1404.37	2.417606	3.630934
1405.794	2.435164	3.647041
1407.218	2.435455	3.683999
1408.64	2.666228	3.701547
1410.061	2.695322	3.697969
1411.481	2.81528	3.698905
1412.9	2.713943	3.72772
1414.318	2.925149	3.728314
1415.734	2.969009	3.772435
1417.15	3.040034	3.76815
1418.565	3.128484	3.787831
1419.978	3.071005	3.787699
1421.391	3.152851	3.805125
1422.802	3.251797	3.779891
1424.213	3.269834	3.797488
1425.622	3.290262	3.781192
1427.03	3.294605	3.789792
1428.437	3.110036	3.759006
1429.843	2.931623	3.767098
1431.248	2.997106	3.752745
1432.653	2.968759	3.751776
1434.055	2.93559	3.764308
1435.458	3.16841	3.812751
1436.858	3.181225	3.783784
1438.258	3.215976	3.784506
1439.657	3.169081	3.709241
1441.055	3.183121	3.718019
1442.451	3.117887	3.697142
1443.847	3.275254	3.741354
1445.242	3.214586	3.726173
1446.635	3.270899	3.761852
1448.028	3.369134	3.767947
1449.419	3.193021	3.764639
1450.81	3.39707	3.743493
1452.199	3.294651	3.724766
1453.588	3.537167	3.712778
1454.975	3.521296	3.708703
1456.361	3.646016	3.697162
1457.746	3.63576	3.709701
1459.131	3.662134	3.667611
1460.514	3.639091	3.673637
1461.896	3.135341	3.604519
1463.277	3.501041	3.639512
1464.657	3.444352	3.60231
1466.036	3.471645	3.627729
1467.415	3.389245	3.614328
1468.792	3.203001	3.61219
1470.168	3.313746	3.563913
1471.543	3.063565	3.562017
1472.917	3.349665	3.533464
1474.289	3.345003	3.531051
1475.661	3.369698	3.496787
1477.032	3.216443	3.495077
1478.402	3.344474	3.522948
1479.771	3.317781	3.54957
1481.139	3.282341	3.501255
1482.506	3.42175	3.525245
1483.871	3.403671	3.472228
1485.236	3.257763	3.455847
1486.6	3.162303	3.391709
1487.963	3.345661	3.408323
1489.324	3.206402	3.369825
1490.685	3.285792	3.427724
1492.045	3.409544	3.416674
1493.403	3.200553	3.442962
1494.761	3.413892	3.407379
1496.118	3.433106	3.418862
1497.473	3.21762	3.363316
1498.828	3.424125	3.421733
1500.181	3.046398	3.325819
1501.534	3.242567	3.306411
1502.885	3.112998	3.205561
1504.236	2.759385	3.19713
1505.585	3.204832	3.209467
1506.934	3.144284	3.252195
1508.281	3.214573	3.256307
1509.628	3.167379	3.297503
1510.973	3.197921	3.268441
1512.318	3.248175	3.298024
1513.661	3.10343	3.236924
1515.003	3.298362	3.282991
1516.345	3.255258	3.258504
1517.685	3.264586	3.251026
1519.024	3.210696	3.193208
1520.363	3.171177	3.174888
1521.7	3.202157	3.202157
1523.036	3.03351	3.03351
1524.371	3.159275	3.159275
1525.706	3.136897	3.136897
1527.039	3.193219	3.193219
1528.371	3.15453	3.15453
1529.702	2.995617	2.995617
1531.032	3.182274	3.182274
1532.361	3.170709	3.170709
1533.69	3.108407	3.108407
1535.017	3.126572	3.126572
1536.343	2.945016	2.945016
1537.668	3.095881	3.095881
1538.992	2.960665	2.960665
1540.315	3.073855	3.073855
1541.637	2.682515	2.682515
1542.958	3.071143	3.071143
1544.277	3.099901	3.099901
1545.596	3.047993	3.047993
1546.914	3.075649	3.075649
1548.231	3.012488	3.012488
1549.547	3.051227	3.051227
1550.861	2.890307	2.890307
1552.175	2.912162	2.912162
1553.488	2.973299	2.973299
1554.799	2.940713	2.940713
1556.11	2.936512	2.936512
1557.42	2.937763	2.937763
1558.728	2.8967	2.8967
1560.036	2.815149	2.815149
1561.342	2.810696	2.810696
1562.647	2.766508	2.766508
1563.952	2.812525	2.812525
1565.255	2.868149	2.868149
1566.557	2.681179	2.715193
1567.859	2.792556	2.74951
1569.159	2.705522	2.709345
1570.458	2.29987	2.72591
1571.756	2.62244	2.685678
1573.053	2.257678	2.670341
1574.349	2.545179	2.605897
1575.644	2.065377	2.60488
1576.938	2.53983	2.56299
1578.231	2.492014	2.614897
1579.523	2.549957	2.594626
1580.813	2.522602	2.626756
1582.103	2.5375	2.561265
1583.392	2.593824	2.581527
1584.679	2.559885	2.517139
1585.966	2.255048	2.509929
1587.251	2.470171	2.435647
1588.535	2.486968	2.429015
1589.819	2.400564	2.361908
1591.101	2.45023	2.424915
1592.382	2.260201	2.390122
1593.662	2.394878	2.452463
1594.941	2.434898	2.405383
1596.219	2.328227	2.42479
1597.496	2.370887	2.374423
1598.771	2.112052	2.394958
1600.046	2.304245	2.329321
1601.32	2.329669	2.364648
1602.592	2.190873	2.292317
1603.863	2.309363	2.337667
1605.134	1.93498	2.227154
1606.403	2.159136	2.288538
1607.671	2.183297	2.212073
1608.938	2.117878	2.243572
1610.204	2.154536	2.179585
1611.469	2.151017	2.209507
1612.733	2.121233	2.150799
1613.995	2.057915	2.184088
1615.257	2.144808	2.132407
1616.517	2.123216	2.143786
1617.777	1.971144	2.080297
1619.035	2.100282	2.109924
1620.292	2.07254	2.055086
1621.548	2.123951	2.109255
1622.803	2.073806	2.059226
1624.056	2.137843	2.110379
1625.309	1.823516	2.019641
1626.561	2.116009	2.072172
1627.811	2.032965	1.999061
1629.06	1.830217	2.019564
1630.308	1.96222	1.96222
1631.555	1.707637	1.707637
1632.801	1.895463	1.895463
1634.046	1.935224	1.935224
1635.289	1.692308	1.692308
1636.532	1.868161	1.868161
1637.773	1.749046	1.749046
1639.013	1.649625	1.649625
1640.252	1.739415	1.739415
1641.49	1.581632	1.707956
1642.726	1.68954	1.647513
1643.962	1.676988	1.677445
1645.196	1.623312	1.605693
1646.429	1.642412	1.627794
1647.661	1.556849	1.555134
1648.892	1.153164	1.53806
1650.122	1.456901	1.467444
1651.35	1.416469	1.447979
1652.577	1.349815	1.358352
1653.803	1.323241	1.339868
1655.028	1.167397	1.167397
1656.252	1.226636	1.226636
1657.474	1.098367	1.098367
1658.696	1.074099	1.074099
1659.916	0.9615011	0.9615011
1661.135	0.7251152	0.7251152
1662.352	0.815659	0.815659
1663.569	0.7286996	0.7286996
1664.784	0.6866686	0.6732723
1665.998	0.4878633	0.629137
1667.211	0.571617	0.554192
1668.423	0.5504985	0.5504985
1669.633	0.468853	0.468853
1670.842	0.2705321	0.2705321
1672.05	0.4092263	0.4092263
1673.257	0.380111	0.380111
1674.463	0.3386264	0.3386264
1675.667	0.3223431	0.3223431
1676.87	0.1548439	0.1548439
1678.072	0.1896373	0.1896373
1679.272	0.2384278	0.2384278
1680.471	NaN	NaN
1681.669	0.2061208	0.2061208
1682.866	0.1938205	0.1938205
1684.062	0.179337	0.179337
1685.256	0.1704422	0.1704422
1686.449	0.05985498	0.05985498
1687.64	0.139837	0.139837
1688.831	0.06863948	0.06863948
1690.02	0.1198936	0.1198936
1691.208	0.1066463	0.1066463
1692.394	0.07281016	0.07281016
1693.58	0.09005533	0.09005533
1694.763	0.005562083	0.005562083
1695.946	NaN	NaN
1697.127	NaN	0.07063683
1698.307	NaN	NaN
1699.486	0.0735153	0.0735153
1700.664	0.006726488	0.006726488
1701.84	0.06235021	0.06235021
1703.015	0.02531572	0.02531572
1703.01	NaN	NaN
