% wavelengths for 4STARB VIS spectrometer (1044 channels) derived from 88880_Y585_136823_test-cert_20130911-130744.pdf and recorded on 2017-10-03 23:03:03.
% C0 (TOA Counts) for 4STARB VIS spectrometer (1044 channels) derived from the Ames Rooftop comparison and recorded on 2017-10-03 23:03:03.
% See 4STARB_20170513.ipynb for details of the rooftop comparison and c0 file generation. Yohei Shinozuka
Pix Wavelength C0 C0err
0 171.70          0      1e+10
1 172.51 3.5780393e+11      1e+10
2 173.33 1.6025123e+11      1e+10
3 174.14 7.9784615e+10      1e+10
4 174.95 4.8098452e+11      1e+10
5 175.76 2.6942378e+11      1e+10
6 176.58 1.4457799e+11      1e+10
7 177.39 7.9109594e+10      1e+10
8 178.20 4.492638e+10      1e+10
9 179.01 2.5111618e+10      1e+10
10 179.83 1.4482316e+10      1e+10
11 180.64 8.4958836e+09      1e+10
12 181.45 5.0968324e+09      1e+10
13 182.26 3.069816e+09      1e+10
14 183.08 1.8718748e+09      1e+10
15 183.89 1.1569425e+09      1e+10
16 184.70 7.2641691e+08      1e+10
17 185.51 4.6595341e+08      1e+10
18 186.33 2.9856514e+08      1e+10
19 187.14 1.9679664e+08      1e+10
20 187.95 1.2936332e+08      1e+10
21 188.76   87165730      1e+10
22 189.57   59513363      1e+10
23 190.39   40574662      1e+10
24 191.20   27879604      1e+10
25 192.01   19402223      1e+10
26 192.82   13610125      1e+10
27 193.64  9589629.9      1e+10
28 194.45    6943383      1e+10
29 195.26  5041547.3      1e+10
30 196.07  3602811.2      1e+10
31 196.89  2633451.7      1e+10
32 197.70  1980271.2      1e+10
33 198.51  1462347.8      1e+10
34 199.32  1103597.5      1e+10
35 200.14  829121.52      1e+10
36 200.95  637854.71      1e+10
37 201.76  486036.77      1e+10
38 202.57  373743.76      1e+10
39 203.39  288584.39      1e+10
40 204.20  227636.14      1e+10
41 205.01  181047.35      1e+10
42 205.82  141544.34      1e+10
43 206.64  112261.43      1e+10
44 207.45  90722.089      1e+10
45 208.26  72614.505      1e+10
46 209.07   58776.54      1e+10
47 209.88   47496.89      1e+10
48 210.70  38474.209      1e+10
49 211.51    32020.7      1e+10
50 212.32  26072.042      1e+10
51 213.13  21510.906      1e+10
52 213.95  17836.696      1e+10
53 214.76  14951.891      1e+10
54 215.57  12497.486      1e+10
55 216.38  10588.725      1e+10
56 217.19   8860.526      1e+10
57 218.01  7562.0332      1e+10
58 218.82  6306.8313      1e+10
59 219.63  5428.3418      1e+10
60 220.44  4638.3068      1e+10
61 221.26  3985.1078      1e+10
62 222.07  3437.5147      1e+10
63 222.88  2952.9598      1e+10
64 223.69  2545.0591      1e+10
65 224.50  2226.7337      1e+10
66 225.32  1945.8215      1e+10
67 226.13  1694.8126      1e+10
68 226.94  1475.4139      1e+10
69 227.75   1315.831      1e+10
70 228.56  1156.2661      1e+10
71 229.38  1019.3911      1e+10
72 230.19  910.23014      1e+10
73 231.00  798.57928      1e+10
74 231.81  730.00824      1e+10
75 232.63  634.75597      1e+10
76 233.44  568.99162      1e+10
77 234.25  516.64334      1e+10
78 235.06  463.85479      1e+10
79 235.87  416.86515      1e+10
80 236.69  370.83388      1e+10
81 237.50   341.1027      1e+10
82 238.31   311.4886      1e+10
83 239.12  281.06458      1e+10
84 239.93   256.6447      1e+10
85 240.74  228.73213      1e+10
86 241.56  213.45223      1e+10
87 242.37  193.56262      1e+10
88 243.18  178.16608      1e+10
89 243.99  162.70113      1e+10
90 244.80  148.89559      1e+10
91 245.62  138.60289      1e+10
92 246.43  126.29127      1e+10
93 247.24  117.10909      1e+10
94 248.05  109.85628      1e+10
95 248.86  100.54967      1e+10
96 249.68  93.291929      1e+10
97 250.49  87.370968      1e+10
98 251.30  81.044505      1e+10
99 252.11  75.289698      1e+10
100 252.92  71.216916      1e+10
101 253.73  65.464338      1e+10
102 254.55  61.489395      1e+10
103 255.36  58.107484      1e+10
104 256.17   54.93188      1e+10
105 256.98  51.494285      1e+10
106 257.79  47.772956      1e+10
107 258.60  45.248972      1e+10
108 259.42  43.084271      1e+10
109 260.23  40.631311      1e+10
110 261.04  38.134949      1e+10
111 261.85   35.80076      1e+10
112 262.66   33.84293      1e+10
113 263.47  32.394791      1e+10
114 264.29  30.597073      1e+10
115 265.10  28.947966      1e+10
116 265.91  27.875357      1e+10
117 266.72  26.515366      1e+10
118 267.53  25.082344      1e+10
119 268.34  23.778135      1e+10
120 269.15  22.842737      1e+10
121 269.97  21.828178      1e+10
122 270.78  20.802446      1e+10
123 271.59  20.009442      1e+10
124 272.40  18.987004      1e+10
125 273.21  18.571211      1e+10
126 274.02  17.613199      1e+10
127 274.83  16.930388      1e+10
128 275.65  16.338507      1e+10
129 276.46  15.432611      1e+10
130 277.27  15.001453      1e+10
131 278.08  14.444166      1e+10
132 278.89  13.941978      1e+10
133 279.70  13.442235      1e+10
134 280.51  13.021374      1e+10
135 281.33  12.569699      1e+10
136 282.14  12.067095      1e+10
137 282.95  11.738517      1e+10
138 283.76  11.386203      1e+10
139 284.57  10.969319      1e+10
140 285.38    10.6396      1e+10
141 286.19  10.407634      1e+10
142 287.00  10.113405      1e+10
143 287.81  9.8369989      1e+10
144 288.63  9.4838277      1e+10
145 289.44  9.2177039      1e+10
146 290.25  9.0859159      1e+10
147 291.06  8.7934731      1e+10
148 291.87  8.5100874      1e+10
149 292.68  8.3593799      1e+10
150 293.49  8.2043834      1e+10
151 294.30  8.0536725      1e+10
152 295.11  7.9226068      1e+10
153 295.93   7.741487      1e+10
154 296.74  7.7063345      1e+10
155 297.55  7.5105462      1e+10
156 298.36  7.4329389      1e+10
157 299.17   7.444649      1e+10
158 299.98  7.4372031      1e+10
159 300.79  7.5752801      1e+10
160 301.60  7.7970567      1e+10
161 302.41  8.3356985      1e+10
162 303.22  9.1306983      1e+10
163 304.03  10.107007      1e+10
164 304.84  11.218971      1e+10
165 305.66  12.475028      1e+10
166 306.47  14.084666      1e+10
167 307.28   16.39738      1e+10
168 308.09  18.574733      1e+10
169 308.90  20.082285      1e+10
170 309.71  22.268079      1e+10
171 310.52  27.187654      1e+10
172 311.33  32.208459      1e+10
173 312.14  35.662095      1e+10
174 312.95  38.966869      1e+10
175 313.76  42.550659      1e+10
176 314.57  45.596247      1e+10
177 315.38  47.272713      1e+10
178 316.19  50.481388      1e+10
179 317.00  57.411868      1e+10
180 317.81  62.095614      1e+10
181 318.62   64.42512      1e+10
182 319.43  69.207877      1e+10
183 320.25  75.616037      1e+10
184 321.06  78.871714      1e+10
185 321.87  78.225796      1e+10
186 322.68  77.671261      1e+10
187 323.49  81.975622      1e+10
188 324.30  90.963294      1e+10
189 325.11  101.62718      1e+10
190 325.92  115.62112      1e+10
191 326.73  125.97677      1e+10
192 327.54  127.15775      1e+10
193 328.35  128.16358      1e+10
194 329.16   138.2007      1e+10
195 329.97  147.10038      1e+10
196 330.78  144.59236      1e+10
197 331.59  141.98969      1e+10
198 332.40   143.4767      1e+10
199 333.21  143.48169      1e+10
200 334.02  144.85849      1e+10
201 334.83  149.28016      1e+10
202 335.64  147.44659      1e+10
203 336.45  139.09792      1e+10
204 337.26  137.91754      1e+10
205 338.07  146.14083      1e+10
206 338.88  155.64731      1e+10
207 339.69  163.80981      1e+10
208 340.50  167.37649      1e+10
209 341.31  165.38177      1e+10
210 342.12  167.32997      1e+10
211 342.93  169.92352      1e+10
212 343.74  161.53718      1e+10
213 344.55     153.09      1e+10
214 345.36  158.53929      1e+10
215 346.17  164.87918      1e+10
216 346.98  166.29379      1e+10
217 347.79  165.24247      1e+10
218 348.59  164.61326      1e+10
219 349.40  167.62866      1e+10
220 350.21  177.85472      1e+10
221 351.02  184.40749      1e+10
222 351.83  180.48739      1e+10
223 352.64  177.71532      1e+10
224 353.45  186.43933      1e+10
225 354.26  199.24035      1e+10
226 355.07  202.09089      1e+10
227 355.88    193.293      1e+10
228 356.69  176.75849      1e+10
229 357.50  160.75266      1e+10
230 358.31  152.40294      1e+10
231 359.12  163.76046      1e+10
232 359.93  185.45623      1e+10
233 360.74  186.72815      1e+10
234 361.55  180.35242      1e+10
235 362.35  186.82488      1e+10
236 363.16  195.85168      1e+10
237 363.97  200.37955      1e+10
238 364.78  207.68389      1e+10
239 365.59  223.83152      1e+10
240 366.40  238.55191      1e+10
241 367.21  239.43543      1e+10
242 368.02  234.07803      1e+10
243 368.83  234.91015      1e+10
244 369.64  243.52829      1e+10
245 370.44  245.13657      1e+10
246 371.25  241.64338      1e+10
247 372.06  235.41907      1e+10
248 372.87  222.45472      1e+10
249 373.68  209.95967      1e+10
250 374.49  208.10818      1e+10
251 375.30   221.6288      1e+10
252 376.11  241.09601      1e+10
253 376.92   261.8737      1e+10
254 377.72  286.64725      1e+10
255 378.53  294.45461      1e+10
256 379.34  280.29953      1e+10
257 380.15  274.51687      1e+10
258 380.96  275.08467      1e+10
259 381.77  252.99876      1e+10
260 382.58   217.7709      1e+10
261 383.38  201.11009      1e+10
262 384.19  217.89682      1e+10
263 385.00  246.46982      1e+10
264 385.81  259.30218      1e+10
265 386.62  262.54646      1e+10
266 387.43  265.33395      1e+10
267 388.23  270.29987      1e+10
268 389.04  287.82247      1e+10
269 389.85  315.36941      1e+10
270 390.66  337.97479      1e+10
271 391.47  341.69825      1e+10
272 392.28  307.35285      1e+10
273 393.08  252.30805      1e+10
274 393.89  241.53674      1e+10
275 394.70  288.31534      1e+10
276 395.51  321.99035      1e+10
277 396.32  301.50205      1e+10
278 397.12  287.98304      1e+10
279 397.93   340.6327      1e+10
280 398.74  418.02263      1e+10
281 399.55  467.45848      1e+10
282 400.36  491.95091      1e+10
283 401.16  509.33722      1e+10
284 401.97  522.21801      1e+10
285 402.78  525.01918      1e+10
286 403.59  520.91507      1e+10
287 404.39  516.59936      1e+10
288 405.20  512.26043      1e+10
289 406.01  508.06532      1e+10
290 406.82    508.292      1e+10
291 407.63  519.04302      1e+10
292 408.43  536.48367      1e+10
293 409.24  541.77973      1e+10
294 410.05  534.46081      1e+10
295 410.86  541.58253      1e+10
296 411.66  564.67674      1e+10
297 412.47  579.21487      1e+10
298 413.28  582.21258      1e+10
299 414.08  584.18618      1e+10
300 414.89  588.09266      1e+10
301 415.70  594.16252      1e+10
302 416.51  598.17482      1e+10
303 417.31  594.21778      1e+10
304 418.12  588.99514      1e+10
305 418.93  589.26114      1e+10
306 419.74  595.17418      1e+10
307 420.54  607.19408      1e+10
308 421.35  616.89622      1e+10
309 422.16  613.25477      1e+10
310 422.96  605.70937      1e+10
311 423.77  607.01897      1e+10
312 424.58  612.87419      1e+10
313 425.38  615.01645      1e+10
314 426.19  612.78428      1e+10
315 427.00  607.59492      1e+10
316 427.80   601.6457      1e+10
317 428.61  587.90261      1e+10
318 429.42  557.50081      1e+10
319 430.23  527.73754      1e+10
320 431.03  537.69421      1e+10
321 431.84  585.43571      1e+10
322 432.65  629.48505      1e+10
323 433.45   644.8075      1e+10
324 434.26  650.09455      1e+10
325 435.06    667.567      1e+10
326 435.87  693.46958      1e+10
327 436.68   706.8314      1e+10
328 437.48  697.53001      1e+10
329 438.29  681.36959      1e+10
330 439.10  679.51896      1e+10
331 439.90  693.47039      1e+10
332 440.71  715.63506      1e+10
333 441.52  739.55667      1e+10
334 442.32  759.46547      1e+10
335 443.13  771.56186      1e+10
336 443.93  777.23814      1e+10
337 444.74  776.30303      1e+10
338 445.55  771.73716      1e+10
339 446.35  775.54035      1e+10
340 447.16  791.18302      1e+10
341 447.96  809.49754      1e+10
342 448.77  823.31902      1e+10
343 449.58  837.82514      1e+10
344 450.38  853.98687      1e+10
345 451.19  860.71076      1e+10
346 451.99  850.03918      1e+10
347 452.80  832.54899      1e+10
348 453.60  825.07874      1e+10
349 454.41  829.19504      1e+10
350 455.22  839.97974      1e+10
351 456.02  852.64865      1e+10
352 456.83  861.65095      1e+10
353 457.63  864.03069      1e+10
354 458.44  860.37317      1e+10
355 459.24  858.09836      1e+10
356 460.05  862.75796      1e+10
357 460.85   872.9324      1e+10
358 461.66  883.03637      1e+10
359 462.46  888.00925      1e+10
360 463.27  884.54877      1e+10
361 464.08   876.1957      1e+10
362 464.88  869.80697      1e+10
363 465.69  865.43648      1e+10
364 466.49   863.3951      1e+10
365 467.30  864.15802      1e+10
366 468.10  867.85554      1e+10
367 468.91  871.41932      1e+10
368 469.71  870.19704      1e+10
369 470.52  870.06777      1e+10
370 471.32  877.50995      1e+10
371 472.13   887.7515      1e+10
372 472.93  895.14104      1e+10
373 473.73   899.9338      1e+10
374 474.54  902.70436      1e+10
375 475.34  903.23451      1e+10
376 476.15  903.75889      1e+10
377 476.95  908.65456      1e+10
378 477.76  917.47936      1e+10
379 478.56  926.38543      1e+10
380 479.37   932.1498      1e+10
381 480.17  936.58038      1e+10
382 480.98  940.78102      1e+10
383 481.78  942.53414      1e+10
384 482.58  940.34569      1e+10
385 483.39  933.28947      1e+10
386 484.19  916.73801      1e+10
387 485.00  886.16395      1e+10
388 485.80  852.07671      1e+10
389 486.61  837.08194      1e+10
390 487.41   847.3402      1e+10
391 488.21  872.22737      1e+10
392 489.02  898.61631      1e+10
393 489.82  916.88133      1e+10
394 490.63  922.00986      1e+10
395 491.43  917.75265      1e+10
396 492.23  913.04487      1e+10
397 493.04  915.76515      1e+10
398 493.84  926.58433      1e+10
399 494.64  937.51539      1e+10
400 495.45  944.26971      1e+10
401 496.25  947.18549      1e+10
402 497.06  943.83809      1e+10
403 497.86  937.08698      1e+10
404 498.66  929.87834      1e+10
405 499.47  921.59483      1e+10
406 500.27  912.43622      1e+10
407 501.07  904.60703      1e+10
408 501.88  902.87278      1e+10
409 502.68  906.39705      1e+10
410 503.48  912.00593      1e+10
411 504.29  920.16777      1e+10
412 505.09   930.7712      1e+10
413 505.89  938.08449      1e+10
414 506.70   939.3471      1e+10
415 507.50  935.61242      1e+10
416 508.30  933.25252      1e+10
417 509.10  934.11413      1e+10
418 509.91  938.03031      1e+10
419 510.71  941.39357      1e+10
420 511.51  941.07182      1e+10
421 512.32    935.483      1e+10
422 513.12  925.55428      1e+10
423 513.92   915.6744      1e+10
424 514.72  907.58092      1e+10
425 515.53  892.25343      1e+10
426 516.33  868.02808      1e+10
427 517.13  846.27235      1e+10
428 517.93   838.4873      1e+10
429 518.74  849.84628      1e+10
430 519.54  871.61258      1e+10
431 520.34  891.90112      1e+10
432 521.14  905.25072      1e+10
433 521.95  909.66615      1e+10
434 522.75   912.8379      1e+10
435 523.55  919.34671      1e+10
436 524.35  924.54817      1e+10
437 525.15  920.15069      1e+10
438 525.96  903.55502      1e+10
439 526.76  888.30702      1e+10
440 527.56  888.37719      1e+10
441 528.36  902.70135      1e+10
442 529.16  921.26557      1e+10
443 529.97  934.90471      1e+10
444 530.77   938.7243      1e+10
445 531.57  932.73633      1e+10
446 532.37   922.2165      1e+10
447 533.17  915.02775      1e+10
448 533.97  915.87016      1e+10
449 534.78  923.65664      1e+10
450 535.58  929.07291      1e+10
451 536.38   928.7035      1e+10
452 537.18  925.06447      1e+10
453 537.98   920.2069      1e+10
454 538.78  912.87972      1e+10
455 539.58  903.05258      1e+10
456 540.39  895.11008      1e+10
457 541.19   892.6844      1e+10
458 541.99  895.59123      1e+10
459 542.79  901.13979      1e+10
460 543.59  905.97794      1e+10
461 544.39   908.5981      1e+10
462 545.19  910.09585      1e+10
463 545.99    908.428      1e+10
464 546.79  904.42081      1e+10
465 547.59  900.20861      1e+10
466 548.39  898.79151      1e+10
467 549.20  899.02746      1e+10
468 550.00  899.72762      1e+10
469 550.80  898.68782      1e+10
470 551.60  896.18521      1e+10
471 552.40  894.07906      1e+10
472 553.20  893.15851      1e+10
473 554.00  894.13321      1e+10
474 554.80  893.12225      1e+10
475 555.60   888.4733      1e+10
476 556.40  881.57543      1e+10
477 557.20   873.0538      1e+10
478 558.00  862.53822      1e+10
479 558.80  855.03537      1e+10
480 559.60  853.31136      1e+10
481 560.40  853.76636      1e+10
482 561.20  856.90141      1e+10
483 562.00  862.70262      1e+10
484 562.80  865.42776      1e+10
485 563.60  866.49333      1e+10
486 564.40  866.57958      1e+10
487 565.20  864.68849      1e+10
488 566.00  862.21023      1e+10
489 566.80  861.11636      1e+10
490 567.60  862.89549      1e+10
491 568.40  863.36502      1e+10
492 569.20  859.78789      1e+10
493 570.00  854.48858      1e+10
494 570.80  850.60191      1e+10
495 571.60  853.72147      1e+10
496 572.39  862.26315      1e+10
497 573.19  869.83372      1e+10
498 573.99  871.68146      1e+10
499 574.79  866.53502      1e+10
500 575.59  860.22004      1e+10
501 576.39  856.16897      1e+10
502 577.19  851.51441      1e+10
503 577.99  845.69265      1e+10
504 578.79  841.40404      1e+10
505 579.59  840.43497      1e+10
506 580.38  842.33399      1e+10
507 581.18  845.48022      1e+10
508 581.98  848.34693      1e+10
509 582.78  849.70884      1e+10
510 583.58  847.63791      1e+10
511 584.38  841.03276      1e+10
512 585.18  831.75481      1e+10
513 585.97  822.87177      1e+10
514 586.77  815.03706      1e+10
515 587.57  800.85373      1e+10
516 588.37  778.17898      1e+10
517 589.17  758.38837      1e+10
518 589.97   752.4749      1e+10
519 590.76  759.33208      1e+10
520 591.56  771.60644      1e+10
521 592.36  780.45322      1e+10
522 593.16  783.77538      1e+10
523 593.96  783.77243      1e+10
524 594.75  784.26373      1e+10
525 595.55   787.3717      1e+10
526 596.35  791.58595      1e+10
527 597.15  794.18929      1e+10
528 597.94  794.65506      1e+10
529 598.74  794.48487      1e+10
530 599.54    794.415      1e+10
531 600.34  794.77861      1e+10
532 601.13  794.98892      1e+10
533 601.93  797.33246      1e+10
534 602.73  803.17021      1e+10
535 603.53   810.9226      1e+10
536 604.32  816.94636      1e+10
537 605.12  819.92358      1e+10
538 605.92  820.53771      1e+10
539 606.71  820.27609      1e+10
540 607.51  818.89175      1e+10
541 608.31  815.90821      1e+10
542 609.10  812.22634      1e+10
543 609.90  809.34137      1e+10
544 610.70  808.29589      1e+10
545 611.49  808.00492      1e+10
546 612.29  805.96608      1e+10
547 613.09  802.96767      1e+10
548 613.88  800.54675      1e+10
549 614.68  797.43229      1e+10
550 615.48  791.57151      1e+10
551 616.27  786.24477      1e+10
552 617.07  785.94805      1e+10
553 617.87  790.77699      1e+10
554 618.66  796.72417      1e+10
555 619.46  801.24486      1e+10
556 620.25  802.44067      1e+10
557 621.05  800.52893      1e+10
558 621.85  795.98962      1e+10
559 622.64  789.86324      1e+10
560 623.44  783.50493      1e+10
561 624.23  777.44516      1e+10
562 625.03  772.54826      1e+10
563 625.83    770.301      1e+10
564 626.62  767.57354      1e+10
565 627.42   762.1753      1e+10
566 628.21  757.23818      1e+10
567 629.01  753.94321      1e+10
568 629.80  753.69282      1e+10
569 630.60  754.23539      1e+10
570 631.39    755.067      1e+10
571 632.19  758.03038      1e+10
572 632.98  761.34659      1e+10
573 633.78  763.91704      1e+10
574 634.57  765.60081      1e+10
575 635.37   765.9055      1e+10
576 636.16  767.02073      1e+10
577 636.96  769.70191      1e+10
578 637.75   772.5896      1e+10
579 638.55  772.47928      1e+10
580 639.34  768.10224      1e+10
581 640.14  762.13923      1e+10
582 640.93  757.60073      1e+10
583 641.73  756.06512      1e+10
584 642.52  756.16925      1e+10
585 643.32  755.51219      1e+10
586 644.11  752.48135      1e+10
587 644.90  746.78116      1e+10
588 645.70  738.90092      1e+10
589 646.49  730.72878      1e+10
590 647.29  722.99075      1e+10
591 648.08  715.73802      1e+10
592 648.88  707.96697      1e+10
593 649.67  703.91868      1e+10
594 650.46  705.59339      1e+10
595 651.26  707.90077      1e+10
596 652.05  707.84795      1e+10
597 652.84   706.7541      1e+10
598 653.64  703.69626      1e+10
599 654.43  691.21607      1e+10
600 655.22  663.82713      1e+10
601 656.02  633.37026      1e+10
602 656.81  624.67879      1e+10
603 657.61  642.97351      1e+10
604 658.40  667.66889      1e+10
605 659.19  682.20757      1e+10
606 659.98  688.26833      1e+10
607 660.78   691.9764      1e+10
608 661.57  694.51024      1e+10
609 662.36  694.65699      1e+10
610 663.16  692.12164      1e+10
611 663.95   689.8393      1e+10
612 664.74  690.08916      1e+10
613 665.53  690.72025      1e+10
614 666.33  690.13609      1e+10
615 667.12  689.00791      1e+10
616 667.91  689.35937      1e+10
617 668.71  690.75239      1e+10
618 669.50  690.80273      1e+10
619 670.29  689.00482      1e+10
620 671.08  686.56164      1e+10
621 671.87  684.88521      1e+10
622 672.67  686.10489      1e+10
623 673.46   688.5039      1e+10
624 674.25   689.1061      1e+10
625 675.04  688.27213      1e+10
626 675.83   687.8392      1e+10
627 676.63  688.06723      1e+10
628 677.42  688.59576      1e+10
629 678.21  688.25204      1e+10
630 679.00  687.38998      1e+10
631 679.79  686.71031      1e+10
632 680.58  686.12411      1e+10
633 681.38  685.47646      1e+10
634 682.17  684.36738      1e+10
635 682.96  681.32203      1e+10
636 683.75  676.21695      1e+10
637 684.54  670.46954      1e+10
638 685.33  659.53465      1e+10
639 686.12  623.14326      1e+10
640 686.91  562.81942      1e+10
641 687.71  526.37823      1e+10
642 688.50  533.13052      1e+10
643 689.29  549.53383      1e+10
644 690.08   562.6778      1e+10
645 690.87  578.41359      1e+10
646 691.66   592.3402      1e+10
647 692.45  598.91699      1e+10
648 693.24  597.17027      1e+10
649 694.03  592.16238      1e+10
650 694.82  590.43252      1e+10
651 695.61   594.8682      1e+10
652 696.40  603.78826      1e+10
653 697.19    609.507      1e+10
654 697.98  605.76614      1e+10
655 698.77   596.0237      1e+10
656 699.56  586.62742      1e+10
657 700.35  579.43764      1e+10
658 701.14   574.5272      1e+10
659 701.93  572.05075      1e+10
660 702.72   573.0583      1e+10
661 703.51  577.07962      1e+10
662 704.30  580.29054      1e+10
663 705.09  580.88488      1e+10
664 705.88  579.35533      1e+10
665 706.67  579.70601      1e+10
666 707.46  580.17297      1e+10
667 708.25   578.8034      1e+10
668 709.04  576.66381      1e+10
669 709.83  576.10715      1e+10
670 710.61  576.03127      1e+10
671 711.40  574.74137      1e+10
672 712.19  572.55542      1e+10
673 712.98  570.71446      1e+10
674 713.77  568.19536      1e+10
675 714.56  563.27263      1e+10
676 715.35  554.99704      1e+10
677 716.14   535.5116      1e+10
678 716.92  497.98142      1e+10
679 717.71  458.55884      1e+10
680 718.50  432.11224      1e+10
681 719.29   420.5551      1e+10
682 720.08  426.47867      1e+10
683 720.87  454.52107      1e+10
684 721.65  490.95595      1e+10
685 722.44  503.06032      1e+10
686 723.23  485.62468      1e+10
687 724.02  464.40374      1e+10
688 724.81  457.83932      1e+10
689 725.59  460.87091      1e+10
690 726.38  466.18665      1e+10
691 727.17  466.81315      1e+10
692 727.96  465.38529      1e+10
693 728.74  466.36204      1e+10
694 729.53  468.88629      1e+10
695 730.32  475.48579      1e+10
696 731.11  482.45227      1e+10
697 731.89  495.72606      1e+10
698 732.68  513.84362      1e+10
699 733.47   529.1423      1e+10
700 734.25  537.96475      1e+10
701 735.04  537.49083      1e+10
702 735.83  533.67206      1e+10
703 736.62  533.43874      1e+10
704 737.40  536.28005      1e+10
705 738.19  534.83526      1e+10
706 738.98  530.53361      1e+10
707 739.76  531.74469      1e+10
708 740.55  533.87509      1e+10
709 741.33  532.79425      1e+10
710 742.12  534.23821      1e+10
711 742.91  539.21468      1e+10
712 743.69  541.74827      1e+10
713 744.48  539.67118      1e+10
714 745.27  537.56891      1e+10
715 746.05  536.33661      1e+10
716 746.84  534.13541      1e+10
717 747.62   532.5892      1e+10
718 748.41  529.70681      1e+10
719 749.19  524.37746      1e+10
720 749.98  520.08959      1e+10
721 750.77  517.12914      1e+10
722 751.55  514.29952      1e+10
723 752.34  511.76817      1e+10
724 753.12    509.352      1e+10
725 753.91  508.56526      1e+10
726 754.69  506.45089      1e+10
727 755.48  501.43642      1e+10
728 756.26  495.76148      1e+10
729 757.05  490.27919      1e+10
730 757.83  481.38089      1e+10
731 758.62  445.34225      1e+10
732 759.40  336.67251      1e+10
733 760.19    194.835      1e+10
734 760.97  135.86173      1e+10
735 761.75  168.77662      1e+10
736 762.54  194.15067      1e+10
737 763.32  191.11063      1e+10
738 764.11  208.29511      1e+10
739 764.89  248.29333      1e+10
740 765.68  294.58754      1e+10
741 766.46  339.39387      1e+10
742 767.24  378.75234      1e+10
743 768.03  406.72311      1e+10
744 768.81  422.05044      1e+10
745 769.60  430.70848      1e+10
746 770.38  436.30139      1e+10
747 771.16  437.92166      1e+10
748 771.95  437.56641      1e+10
749 772.73  438.48875      1e+10
750 773.51   438.9321      1e+10
751 774.30  436.14708      1e+10
752 775.08  433.53063      1e+10
753 775.86  434.15913      1e+10
754 776.65  434.38288      1e+10
755 777.43  432.04096      1e+10
756 778.21  430.20144      1e+10
757 778.99  429.17568      1e+10
758 779.78  426.95253      1e+10
759 780.56   424.9795      1e+10
760 781.34  425.15879      1e+10
761 782.13  425.46648      1e+10
762 782.91  423.15444      1e+10
763 783.69  419.59741      1e+10
764 784.47  418.20609      1e+10
765 785.25  418.03057      1e+10
766 786.04  416.79916      1e+10
767 786.82  413.73038      1e+10
768 787.60  409.21673      1e+10
769 788.38  404.53367      1e+10
770 789.16  400.13089      1e+10
771 789.95  397.25711      1e+10
772 790.73  395.24804      1e+10
773 791.51  392.29544      1e+10
774 792.29   388.7489      1e+10
775 793.07   386.7511      1e+10
776 793.85  386.76652      1e+10
777 794.64  387.03115      1e+10
778 795.42  385.14824      1e+10
779 796.20  382.54846      1e+10
780 796.98  382.76717      1e+10
781 797.76  385.71103      1e+10
782 798.54  386.58511      1e+10
783 799.32  383.27332      1e+10
784 800.10  378.24415      1e+10
785 800.88  375.09923      1e+10
786 801.66  374.38374      1e+10
787 802.44  374.48084      1e+10
788 803.23  374.13884      1e+10
789 804.01  372.34867      1e+10
790 804.79  370.64638      1e+10
791 805.57  371.17474      1e+10
792 806.35  373.04346      1e+10
793 807.13  373.29484      1e+10
794 807.91  370.27863      1e+10
795 808.69  364.37622      1e+10
796 809.47  358.20479      1e+10
797 810.25  353.92909      1e+10
798 811.03  350.97564      1e+10
799 811.80  345.50923      1e+10
800 812.58  334.48508      1e+10
801 813.36  318.43176      1e+10
802 814.14  302.05787      1e+10
803 814.92  288.85546      1e+10
804 815.70  279.71607      1e+10
805 816.48   274.3395      1e+10
806 817.26  271.83033      1e+10
807 818.04  271.48519      1e+10
808 818.82  274.06341      1e+10
809 819.60  281.73453      1e+10
810 820.38  292.11258      1e+10
811 821.15  294.75008      1e+10
812 821.93  283.59358      1e+10
813 822.71  268.40643      1e+10
814 823.49   266.5859      1e+10
815 824.27  279.35647      1e+10
816 825.05  293.94698      1e+10
817 825.82  300.45843      1e+10
818 826.60  297.52844      1e+10
819 827.38  289.31048      1e+10
820 828.16   282.2986      1e+10
821 828.94  280.41937      1e+10
822 829.71  282.62105      1e+10
823 830.49  284.93126      1e+10
824 831.27  284.85778      1e+10
825 832.05  283.07092      1e+10
826 832.82  282.06468      1e+10
827 833.60   284.0913      1e+10
828 834.38  289.02446      1e+10
829 835.16  294.21108      1e+10
830 835.93   297.0217      1e+10
831 836.71  297.40012      1e+10
832 837.49  296.64714      1e+10
833 838.26  296.84907      1e+10
834 839.04  298.74411      1e+10
835 839.82  300.89227      1e+10
836 840.59  301.38172      1e+10
837 841.37   299.5649      1e+10
838 842.15  296.33464      1e+10
839 842.92  293.52153      1e+10
840 843.70  292.88414      1e+10
841 844.48  294.04691      1e+10
842 845.25   295.3285      1e+10
843 846.03  294.84381      1e+10
844 846.80  292.29943      1e+10
845 847.58  288.69899      1e+10
846 848.35  284.77207      1e+10
847 849.13  281.58348      1e+10
848 849.91  279.15513      1e+10
849 850.68  277.84648      1e+10
850 851.46  275.61214      1e+10
851 852.23  270.83106      1e+10
852 853.01  264.17488      1e+10
853 853.78  258.27961      1e+10
854 854.56  256.60395      1e+10
855 855.33  260.17822      1e+10
856 856.11  266.30888      1e+10
857 856.88  270.53133      1e+10
858 857.66  271.92668      1e+10
859 858.43  271.69788      1e+10
860 859.21  271.61499      1e+10
861 859.98  271.90357      1e+10
862 860.76  271.84438      1e+10
863 861.53  270.65233      1e+10
864 862.30  268.17635      1e+10
865 863.08  264.83332      1e+10
866 863.85  261.01507      1e+10
867 864.63  256.64778      1e+10
868 865.40  251.98334      1e+10
869 866.17  247.85502      1e+10
870 866.95  245.49804      1e+10
871 867.72   245.6447      1e+10
872 868.50   247.4082      1e+10
873 869.27  249.58745      1e+10
874 870.04  251.41014      1e+10
875 870.82  252.17413      1e+10
876 871.59  251.63668      1e+10
877 872.36   249.6243      1e+10
878 873.13  246.63857      1e+10
879 873.91  244.00141      1e+10
880 874.68   242.3402      1e+10
881 875.45  241.94493      1e+10
882 876.23   241.8835      1e+10
883 877.00  241.42225      1e+10
884 877.77  239.90917      1e+10
885 878.54  237.63006      1e+10
886 879.32  235.22426      1e+10
887 880.09  233.44439      1e+10
888 880.86  232.45466      1e+10
889 881.63  232.19632      1e+10
890 882.40  231.96782      1e+10
891 883.18  230.61293      1e+10
892 883.95  228.43508      1e+10
893 884.72  226.00808      1e+10
894 885.49  223.89684      1e+10
895 886.26  222.55072      1e+10
896 887.03  221.90704      1e+10
897 887.81  221.48825      1e+10
898 888.58  220.72062      1e+10
899 889.35   219.3197      1e+10
900 890.12  217.21575      1e+10
901 890.89  214.55916      1e+10
902 891.66  211.47502      1e+10
903 892.43  207.52718      1e+10
904 893.20  202.59379      1e+10
905 893.97  196.39049      1e+10
906 894.74  188.88023      1e+10
907 895.51  180.60842      1e+10
908 896.28  172.47007      1e+10
909 897.05  165.25463      1e+10
910 897.83  159.32092      1e+10
911 898.60  154.78304      1e+10
912 899.37  151.76572      1e+10
913 900.14  150.29909      1e+10
914 900.90   150.3682      1e+10
915 901.67  151.83149      1e+10
916 902.44   154.5217      1e+10
917 903.21  157.62543      1e+10
918 903.98   160.0546      1e+10
919 904.75  160.78875      1e+10
920 905.52  159.07614      1e+10
921 906.29  155.00633      1e+10
922 907.06  149.65951      1e+10
923 907.83   144.4071      1e+10
924 908.60  140.26703      1e+10
925 909.37  137.59117      1e+10
926 910.14  136.28416      1e+10
927 910.90  135.83115      1e+10
928 911.67  135.56363      1e+10
929 912.44  134.72839      1e+10
930 913.21   133.2017      1e+10
931 913.98  131.72987      1e+10
932 914.75  130.82182      1e+10
933 915.51  130.60149      1e+10
934 916.28   131.2493      1e+10
935 917.05  132.60686      1e+10
936 917.82   134.2096      1e+10
937 918.59  135.75624      1e+10
938 919.35  137.26643      1e+10
939 920.12  138.46696      1e+10
940 920.89  138.97788      1e+10
941 921.66  138.93221      1e+10
942 922.42  138.15044      1e+10
943 923.19  136.50157      1e+10
944 923.96   133.9535      1e+10
945 924.72  130.60363      1e+10
946 925.49  126.38604      1e+10
947 926.26  121.40701      1e+10
948 927.03  115.34264      1e+10
949 927.79  108.28817      1e+10
950 928.56  100.19101      1e+10
951 929.32  91.154601      1e+10
952 930.09  81.857043      1e+10
953 930.86  72.648382      1e+10
954 931.62  64.026128      1e+10
955 932.39    56.5358      1e+10
956 933.16  50.542693      1e+10
957 933.92  46.323552      1e+10
958 934.69  44.012799      1e+10
959 935.45  43.246797      1e+10
960 936.22  43.686691      1e+10
961 936.98  44.928588      1e+10
962 937.75  46.727455      1e+10
963 938.51  49.030094      1e+10
964 939.28  51.358206      1e+10
965 940.04  53.046225      1e+10
966 940.81  53.953447      1e+10
967 941.57  53.996447      1e+10
968 942.34  53.310613      1e+10
969 943.10  52.130165      1e+10
970 943.87  50.676506      1e+10
971 944.63  49.425467      1e+10
972 945.40  48.735305      1e+10
973 946.16  48.528967      1e+10
974 946.93  48.632326      1e+10
975 947.69  49.029052      1e+10
976 948.45   49.49315      1e+10
977 949.22  49.855086      1e+10
978 949.98  50.122427      1e+10
979 950.75   50.45463      1e+10
980 951.51  50.711581      1e+10
981 952.27  50.976557      1e+10
982 953.04  51.278017      1e+10
983 953.80  51.528128      1e+10
984 954.56  51.905336      1e+10
985 955.33  52.384633      1e+10
986 956.09  52.739018      1e+10
987 956.85  53.343465      1e+10
988 957.62   54.20626      1e+10
989 958.38  55.024338      1e+10
990 959.14  55.819226      1e+10
991 959.90  56.706674      1e+10
992 960.67  57.634214      1e+10
993 961.43  58.704435      1e+10
994 962.19  59.921523      1e+10
995 962.95  61.244071      1e+10
996 963.72  62.747909      1e+10
997 964.48  64.417231      1e+10
998 965.24  66.100431      1e+10
999 966.00  67.667454      1e+10
1000 966.76  69.202884      1e+10
1001 967.52  70.704234      1e+10
1002 968.29  72.060971      1e+10
1003 969.05  73.145097      1e+10
1004 969.81  74.010755      1e+10
1005 970.57  74.535997      1e+10
1006 971.33  74.578739      1e+10
1007 972.09  74.215751      1e+10
1008 972.85  73.497105      1e+10
1009 973.61  72.536846      1e+10
1010 974.37  71.611489      1e+10
1011 975.14  70.814748      1e+10
1012 975.90   70.35404      1e+10
1013 976.66  70.119696      1e+10
1014 977.42  70.043336      1e+10
1015 978.18  70.056089      1e+10
1016 978.94  70.170729      1e+10
1017 979.70  70.354458      1e+10
1018 980.46  70.683444      1e+10
1019 981.22  71.052513      1e+10
1020 981.98  71.407825      1e+10
1021 982.74  71.639836      1e+10
1022 983.50  71.680878      1e+10
1023 984.25  71.560272      1e+10
1024 985.01  71.393537      1e+10
1025 985.77  71.256304      1e+10
1026 986.53  71.154647      1e+10
1027 987.29  70.925247      1e+10
1028 988.05  70.496079      1e+10
1029 988.81  69.836526      1e+10
1030 989.57  69.114739      1e+10
1031 990.33  68.470369      1e+10
1032 991.08  67.934991      1e+10
1033 991.84  67.282561      1e+10
1034 992.60  66.380225      1e+10
1035 993.36   65.36547      1e+10
1036 994.12  64.260888      1e+10
1037 994.88  63.211819      1e+10
1038 995.63  62.126145      1e+10
1039 996.39  60.782723      1e+10
1040 997.15  3.9649894      1e+10
1041 997.91 0.22208277      1e+10
1042 998.66  0.1309322      1e+10
1043 999.42 0.12108104      1e+10
