% wavelengths for 4STARB NIR spectrometer (512 channels) derived from 96228_B130251L03_771_test-cert_20141015-120501.pdf and recorded on 2017-09-10 20:15:37.
% C0 (TOA Counts) for 4STARB NIR spectrometer (512 channels) derived from the Ames Rooftop comparison and recorded on 2017-09-10 20:15:37.
% See 4STARB_20170513.ipynb for details of the rooftop comparison and c0 file generation. Yohei Shinozuka
Pix Wavelength C0 C0err
511 1700.28 0.057473911      1e+10
510 1699.11 0.074990032      1e+10
509 1697.93 0.13961863      1e+10
508 1696.75 0.080801775      1e+10
507 1695.58  0.1424737      1e+10
506 1694.40 0.066997668      1e+10
505 1693.22 0.13962771      1e+10
504 1692.03 0.055384106      1e+10
503 1690.85 0.13060239      1e+10
502 1689.67 0.12154636      1e+10
501 1688.48 0.15758047      1e+10
500 1687.29 0.085282325      1e+10
499 1686.11 0.11444059      1e+10
498 1684.92 0.27010324      1e+10
497 1683.73 0.10622524      1e+10
496 1682.53 0.097951266      1e+10
495 1681.34 0.15941756      1e+10
494 1680.15 0.10124081      1e+10
493 1678.95 0.13468241      1e+10
492 1677.75 0.19318894      1e+10
491 1676.56 0.13030466      1e+10
490 1675.36 0.23878093      1e+10
489 1674.16 0.19881151      1e+10
488 1672.95  0.2276858      1e+10
487 1671.75 0.16981075      1e+10
486 1670.55 0.21617141      1e+10
485 1669.34 0.20043922      1e+10
484 1668.14 0.21272856      1e+10
483 1666.93 0.25745696      1e+10
482 1665.72 0.20492021      1e+10
481 1664.51 0.24528267      1e+10
480 1663.30 0.21807026      1e+10
479 1662.08 0.25322527      1e+10
478 1660.87 0.27408687      1e+10
477 1659.66 0.27596344      1e+10
476 1658.44 0.25602227      1e+10
475 1657.22 0.31435333      1e+10
474 1656.00 0.28300548      1e+10
473 1654.78 0.31725492      1e+10
472 1653.56 0.28975643      1e+10
471 1652.34 0.31183197      1e+10
470 1651.12 0.31105034      1e+10
469 1649.89 0.36938483      1e+10
468 1648.67 0.30397182      1e+10
467 1647.44 0.36266504      1e+10
466 1646.21 0.33660233      1e+10
465 1644.98 0.34635453      1e+10
464 1643.75 0.33601047      1e+10
463 1642.52 0.36994562      1e+10
462 1641.29  0.3947269      1e+10
461 1640.06 0.38110826      1e+10
460 1638.82 0.37250776      1e+10
459 1637.59 0.41714286      1e+10
458 1636.35 0.38436606      1e+10
457 1635.11  0.4341339      1e+10
456 1633.87 0.42226855      1e+10
455 1632.63 0.38586128      1e+10
454 1631.39  0.4353584      1e+10
453 1630.15 0.44040755      1e+10
452 1628.90 0.43642252      1e+10
451 1627.66  0.4600261      1e+10
450 1626.41 0.44529936      1e+10
449 1625.17 0.50231859      1e+10
448 1623.92 0.45691306      1e+10
447 1622.67 0.48213189      1e+10
446 1621.42 0.49326441      1e+10
445 1620.17 0.48874554      1e+10
444 1618.92 0.52108015      1e+10
443 1617.66  0.4990651      1e+10
442 1616.41 0.49344201      1e+10
441 1615.15  0.5087293      1e+10
440 1613.89 0.48450871      1e+10
439 1612.64 0.53250261      1e+10
438 1611.38 0.51469622      1e+10
437 1610.12 0.51997481      1e+10
436 1608.86 0.50941325      1e+10
435 1607.59 0.49048088      1e+10
434 1606.33 0.56000156      1e+10
433 1605.07 0.53167673      1e+10
432 1603.80 0.55280604      1e+10
431 1602.54 0.57686424      1e+10
430 1601.27 0.54582186      1e+10
429 1600.00  0.6350343      1e+10
428 1598.73 0.52651824      1e+10
427 1597.46 0.63173175      1e+10
426 1596.19 0.58384953      1e+10
425 1594.91 0.66489321      1e+10
424 1593.64 0.62293184      1e+10
423 1592.37  0.6604636      1e+10
422 1591.09 0.64510854      1e+10
421 1589.81 0.67539118      1e+10
420 1588.54 0.60588286      1e+10
419 1587.26 0.68650271      1e+10
418 1585.98 0.69786949      1e+10
417 1584.70 0.67721253      1e+10
416 1583.41 0.68455195      1e+10
415 1582.13 0.73447241      1e+10
414 1580.85 0.67338432      1e+10
413 1579.56  0.7242167      1e+10
412 1578.27 0.72436176      1e+10
411 1576.99 0.72282667      1e+10
410 1575.70 0.66241268      1e+10
409 1574.41 0.75665038      1e+10
408 1573.12 0.70323906      1e+10
407 1571.83 0.74579133      1e+10
406 1570.54 0.75876305      1e+10
405 1569.24 0.78033404      1e+10
404 1567.95 0.83365508      1e+10
403 1566.65 0.78353192      1e+10
402 1565.36 0.86224019      1e+10
401 1564.06 0.91050341      1e+10
400 1562.76 0.88154062      1e+10
399 1561.46 0.84865281      1e+10
398 1560.16 0.94240064      1e+10
397 1558.86 0.88725516      1e+10
396 1557.56 0.95718375      1e+10
395 1556.25 0.98200236      1e+10
394 1554.95 0.91731307      1e+10
393 1553.64 0.95761203      1e+10
392 1552.34 0.99144823      1e+10
391 1551.03 0.95744114      1e+10
390 1549.72  1.0128453      1e+10
389 1548.41  1.0196396      1e+10
388 1547.10   0.985985      1e+10
387 1545.79  1.0636388      1e+10
386 1544.48  1.0386684      1e+10
385 1543.16 0.98709788      1e+10
384 1541.85  1.0830503      1e+10
383 1540.53  1.0492715      1e+10
382 1539.22  1.0017267      1e+10
381 1537.90  1.0586366      1e+10
380 1536.58  1.0091858      1e+10
379 1535.26  1.0864943      1e+10
378 1533.94  1.0518507      1e+10
377 1532.62  1.0759544      1e+10
376 1531.30  1.0802511      1e+10
375 1529.98  1.0667728      1e+10
374 1528.65   1.029302      1e+10
373 1527.33  1.1248971      1e+10
372 1526.00  1.0427983      1e+10
371 1524.67  1.1328509      1e+10
370 1523.34  1.0899455      1e+10
369 1522.02  1.1177988      1e+10
368 1520.68  1.0676575      1e+10
367 1519.35  1.0383508      1e+10
366 1518.02  1.0673234      1e+10
365 1516.69   1.025026      1e+10
364 1515.35  1.0825369      1e+10
363 1514.02  1.0054232      1e+10
362 1512.68  1.0791878      1e+10
361 1511.35  1.0108764      1e+10
360 1510.01  1.0248401      1e+10
359 1508.67  1.0625726      1e+10
358 1507.33 0.99151012      1e+10
357 1505.99 0.94878463      1e+10
356 1504.65 0.92889641      1e+10
355 1503.30 0.88817718      1e+10
354 1501.96 0.90622035      1e+10
353 1500.61 0.94229213      1e+10
352 1499.27  1.0021454      1e+10
351 1497.92 0.93178238      1e+10
350 1496.57 0.91174427      1e+10
349 1495.22 0.82244033      1e+10
348 1493.87 0.78649643      1e+10
347 1492.52 0.76723987      1e+10
346 1491.17 0.74433636      1e+10
345 1489.82 0.66918455      1e+10
344 1488.46 0.57549543      1e+10
343 1487.11 0.50288174      1e+10
342 1485.75 0.45951392      1e+10
341 1484.40 0.43405667      1e+10
340 1483.04 0.46538981      1e+10
339 1481.68 0.41414403      1e+10
338 1480.32 0.40594135      1e+10
337 1478.96 0.32413727      1e+10
336 1477.60 0.35840838      1e+10
335 1476.24 0.37150524      1e+10
334 1474.87 0.40750899      1e+10
333 1473.51 0.35744864      1e+10
332 1472.14 0.30940848      1e+10
331 1470.78 0.22750161      1e+10
330 1469.41 0.19749946      1e+10
329 1468.04  0.2550105      1e+10
328 1466.67 0.28542533      1e+10
327 1465.30 0.38122617      1e+10
326 1463.93 0.45420144      1e+10
325 1462.55 0.43233664      1e+10
324 1461.18 0.45568151      1e+10
323 1459.81  0.5104483      1e+10
322 1458.43 0.50750293      1e+10
321 1457.05 0.53848535      1e+10
320 1455.68  0.4585025      1e+10
319 1454.30 0.41046988      1e+10
318 1452.92 0.35084722      1e+10
317 1451.54 0.35123191      1e+10
316 1450.16 0.30072334      1e+10
315 1448.77 0.27056708      1e+10
314 1447.39 0.27473524      1e+10
313 1446.01 0.27042906      1e+10
312 1444.62 0.23289416      1e+10
311 1443.23 0.18496433      1e+10
310 1441.85 0.18815399      1e+10
309 1440.46 0.20950615      1e+10
308 1439.07  0.1896909      1e+10
307 1437.68  0.1611283      1e+10
306 1436.28 0.19292633      1e+10
305 1434.89 0.21942088      1e+10
304 1433.50 0.18266368      1e+10
303 1432.10 0.21306977      1e+10
302 1430.71 0.20076702      1e+10
301 1429.31 0.24881169      1e+10
300 1427.91 0.20150317      1e+10
299 1426.51 0.24844917      1e+10
298 1425.11 0.17182108      1e+10
297 1423.71 0.18301859      1e+10
296 1422.31 0.16033289      1e+10
295 1420.91  0.1526494      1e+10
294 1419.50 0.13772847      1e+10
293 1418.10 0.13150049      1e+10
292 1416.69 0.14773727      1e+10
291 1415.29 0.19978132      1e+10
290 1413.88 0.12877433      1e+10
289 1412.47 0.13258579      1e+10
288 1411.06 0.14710951      1e+10
287 1409.65 0.14909396      1e+10
286 1408.23 0.15995345      1e+10
285 1406.82  0.1293126      1e+10
284 1405.41 0.18240145      1e+10
283 1403.99  0.1793746      1e+10
282 1402.57 0.078777705      1e+10
281 1401.16 0.26918128      1e+10
280 1399.74 0.14828567      1e+10
279 1398.32 0.21337443      1e+10
278 1396.90 0.10917566      1e+10
277 1395.48 0.16615803      1e+10
276 1394.05 0.096387026      1e+10
275 1392.63 0.16859549      1e+10
274 1391.20 0.20770007      1e+10
273 1389.78 0.13370036      1e+10
272 1388.35 0.19851549      1e+10
271 1386.92  0.1643617      1e+10
270 1385.49 0.10982072      1e+10
269 1384.06 0.12993119      1e+10
268 1382.63 0.098875834      1e+10
267 1381.20 0.17978403      1e+10
266 1379.76 0.099297182      1e+10
265 1378.33  0.2454304      1e+10
264 1376.89  0.1195839      1e+10
263 1375.46   0.162613      1e+10
262 1374.02 0.13223541      1e+10
261 1372.58 0.13816569      1e+10
260 1371.14 0.10662306      1e+10
259 1369.70 0.17128639      1e+10
258 1368.25 0.12738715      1e+10
257 1366.81 0.15715225      1e+10
256 1365.37 0.12361267      1e+10
255 1363.92  0.1315917      1e+10
254 1362.47 0.12635277      1e+10
253 1361.03 0.20849427      1e+10
252 1359.58 0.12718323      1e+10
251 1358.13 0.13834365      1e+10
250 1356.67 0.17091526      1e+10
249 1355.22  0.1183986      1e+10
248 1353.77 0.10752469      1e+10
247 1352.31 0.24542006      1e+10
246 1350.86 0.14028378      1e+10
245 1349.40 0.23259213      1e+10
244 1347.94 0.32594985      1e+10
243 1346.48   0.505347      1e+10
242 1345.02   0.754565      1e+10
241 1343.56   1.044792      1e+10
240 1342.10  1.3861601      1e+10
239 1340.63  1.5960367      1e+10
238 1339.17  1.7929472      1e+10
237 1337.70  1.8948251      1e+10
236 1336.23  1.9353157      1e+10
235 1334.76   1.881536      1e+10
234 1333.29  1.7956867      1e+10
233 1331.82  1.7487036      1e+10
232 1330.35  1.7459712      1e+10
231 1328.87  1.9699388      1e+10
230 1327.40  2.4958211      1e+10
229 1325.92  2.7773544      1e+10
228 1324.45  3.0353663      1e+10
227 1322.97  3.2040775      1e+10
226 1321.49  3.1456603      1e+10
225 1320.01  3.1616614      1e+10
224 1318.52  3.4201001      1e+10
223 1317.04  3.5111368      1e+10
222 1315.56  3.5390111      1e+10
221 1314.07  3.6587381      1e+10
220 1312.58  3.6393325      1e+10
219 1311.10   3.828556      1e+10
218 1309.61  4.0524152      1e+10
217 1308.12  4.2335834      1e+10
216 1306.62  4.3769233      1e+10
215 1305.13  4.4575163      1e+10
214 1303.64  4.5984501      1e+10
213 1302.14  4.7304744      1e+10
212 1300.64  4.8700146      1e+10
211 1299.14  5.0013249      1e+10
210 1297.64  5.1136809      1e+10
209 1296.14  5.2126469      1e+10
208 1294.64  5.3057567      1e+10
207 1293.14  5.4867397      1e+10
206 1291.63  5.6307239      1e+10
205 1290.13  5.6339521      1e+10
204 1288.62  5.6953901      1e+10
203 1287.11  5.8436055      1e+10
202 1285.60  5.8571545      1e+10
201 1284.09  5.8064272      1e+10
200 1282.58  5.8135084      1e+10
199 1281.06  5.7932247      1e+10
198 1279.55   5.756405      1e+10
197 1278.03  5.9262963      1e+10
196 1276.51  6.0071146      1e+10
195 1274.99  6.0169773      1e+10
194 1273.47  5.9096315      1e+10
193 1271.95  5.7804934      1e+10
192 1270.43  5.5875971      1e+10
191 1268.90  5.3753477      1e+10
190 1267.38   5.298915      1e+10
189 1265.85  5.4386349      1e+10
188 1264.32  5.6697924      1e+10
187 1262.79   5.817715      1e+10
186 1261.26   5.953773      1e+10
185 1259.73  6.2406337      1e+10
184 1258.19   6.463371      1e+10
183 1256.66  6.6373692      1e+10
182 1255.12  6.8148087      1e+10
181 1253.58   6.937533      1e+10
180 1252.04  7.0943487      1e+10
179 1250.50  7.0752641      1e+10
178 1248.96  7.1896525      1e+10
177 1247.42  7.2217236      1e+10
176 1245.87  7.3505639      1e+10
175 1244.32  7.3196848      1e+10
174 1242.78  7.4625298      1e+10
173 1241.23  7.4225205      1e+10
172 1239.67  7.6508146      1e+10
171 1238.12  7.6163706      1e+10
170 1236.57  7.7540737      1e+10
169 1235.01  7.7279971      1e+10
168 1233.46  7.8102312      1e+10
167 1231.90  7.7309501      1e+10
166 1230.34  7.7259139      1e+10
165 1228.78  7.7101825      1e+10
164 1227.21  7.6099672      1e+10
163 1225.65  7.6154303      1e+10
162 1224.08   7.622972      1e+10
161 1222.51  7.6038321      1e+10
160 1220.95  7.7039932      1e+10
159 1219.38  7.6986456      1e+10
158 1217.80  7.7306653      1e+10
157 1216.23  7.6564919      1e+10
156 1214.66   7.476272      1e+10
155 1213.08  7.3674022      1e+10
154 1211.50  7.3235598      1e+10
153 1209.92  7.3781857      1e+10
152 1208.34  7.3803604      1e+10
151 1206.76  7.4809287      1e+10
150 1205.17  7.3265697      1e+10
149 1203.59  7.3589456      1e+10
148 1202.00  7.2429805      1e+10
147 1200.41  7.2479857      1e+10
146 1198.82  7.4062366      1e+10
145 1197.23  7.5622266      1e+10
144 1195.63  7.8641087      1e+10
143 1194.04   8.160132      1e+10
142 1192.44  8.2065006      1e+10
141 1190.84  8.1414009      1e+10
140 1189.24  7.8370577      1e+10
139 1187.64  7.7899877      1e+10
138 1186.04  7.6062498      1e+10
137 1184.43  7.7025079      1e+10
136 1182.83   7.703321      1e+10
135 1181.22  7.8519452      1e+10
134 1179.61  8.0050318      1e+10
133 1178.00  8.3654971      1e+10
132 1176.38  8.3526132      1e+10
131 1174.77  8.3098533      1e+10
130 1173.15  8.3945107      1e+10
129 1171.53  8.3717274      1e+10
128 1169.91  8.5478455      1e+10
127 1168.29  8.2410724      1e+10
126 1166.67  7.8725124      1e+10
125 1165.04  7.6803448      1e+10
124 1163.42  7.4849362      1e+10
123 1161.79  6.9765111      1e+10
122 1160.16   6.524959      1e+10
121 1158.53  5.7976291      1e+10
120 1156.89  5.2928963      1e+10
119 1155.26  4.5182843      1e+10
118 1153.62  3.9805207      1e+10
117 1151.98  3.4490311      1e+10
116 1150.34  3.2789486      1e+10
115 1148.70  3.0185683      1e+10
114 1147.05  2.5320868      1e+10
113 1145.41  2.4591908      1e+10
112 1143.76  2.7551942      1e+10
111 1142.11  3.3926803      1e+10
110 1140.46   3.934426      1e+10
109 1138.80  3.8652766      1e+10
108 1137.15  3.3054741      1e+10
107 1135.49  2.5219843      1e+10
106 1133.83  2.2619808      1e+10
105 1132.17  2.3741068      1e+10
104 1130.51  2.4358402      1e+10
103 1128.85  2.2213306      1e+10
102 1127.18  1.7457539      1e+10
101 1125.51  1.6140832      1e+10
100 1123.84  1.7730422      1e+10
99 1122.17  1.7890673      1e+10
98 1120.50  2.0537745      1e+10
97 1118.82  2.3296891      1e+10
96 1117.14  2.8749878      1e+10
95 1115.46  3.7614699      1e+10
94 1113.78  4.8684132      1e+10
93 1112.10  6.1320477      1e+10
92 1110.41  7.0509003      1e+10
91 1108.73  7.6814414      1e+10
90 1107.04  8.1227208      1e+10
89 1105.35  8.2909895      1e+10
88 1103.65  8.6224784      1e+10
87 1101.96   8.825417      1e+10
86 1100.26  9.0789026      1e+10
85 1098.56  9.4630151      1e+10
84 1096.86  9.6609937      1e+10
83 1095.16   9.984127      1e+10
82 1093.45  10.243393      1e+10
81 1091.75  10.558777      1e+10
80 1090.04  10.751226      1e+10
79 1088.33  10.844086      1e+10
78 1086.61  10.898311      1e+10
77 1084.90  10.920957      1e+10
76 1083.18  11.124351      1e+10
75 1081.46  11.362362      1e+10
74 1079.74  11.562753      1e+10
73 1078.02  11.818089      1e+10
72 1076.29  11.959991      1e+10
71 1074.56  12.192686      1e+10
70 1072.83  12.287176      1e+10
69 1071.10  12.376123      1e+10
68 1069.37  12.593226      1e+10
67 1067.63  12.730862      1e+10
66 1065.89  13.107977      1e+10
65 1064.15  13.256157      1e+10
64 1062.41  13.503405      1e+10
63 1060.67  13.639538      1e+10
62 1058.92  13.713498      1e+10
61 1057.17   13.90975      1e+10
60 1055.42  14.123435      1e+10
59 1053.67  14.179002      1e+10
58 1051.91  14.239665      1e+10
57 1050.15  14.466349      1e+10
56 1048.39  14.542673      1e+10
55 1046.63   14.66309      1e+10
54 1044.87  15.010139      1e+10
53 1043.10  15.012173      1e+10
52 1041.33  15.297513      1e+10
51 1039.56  15.434228      1e+10
50 1037.79   15.57694      1e+10
49 1036.01  15.756094      1e+10
48 1034.23  15.888263      1e+10
47 1032.45  16.023563      1e+10
46 1030.67  16.299554      1e+10
45 1028.89  16.300164      1e+10
44 1027.10  16.526793      1e+10
43 1025.31  16.394689      1e+10
42 1023.52  16.655352      1e+10
41 1021.73  16.747248      1e+10
40 1019.93  16.826003      1e+10
39 1018.13  16.780429      1e+10
38 1016.33  17.093721      1e+10
37 1014.53   16.88274      1e+10
36 1012.72  17.078474      1e+10
35 1010.91  16.867897      1e+10
34 1009.10  16.930716      1e+10
33 1007.29  16.755282      1e+10
32 1005.47  16.702568      1e+10
31 1003.65  16.722292      1e+10
30 1001.83  16.621053      1e+10
29 1000.01  16.875284      1e+10
28 998.19  16.941016      1e+10
27 996.36  16.763823      1e+10
26 994.53  16.832578      1e+10
25 992.70   16.52028      1e+10
24 990.86  16.548772      1e+10
23 989.02  16.250362      1e+10
22 987.18   15.95177      1e+10
21 985.34  15.451954      1e+10
20 983.50  14.948657      1e+10
19 981.65  14.181036      1e+10
18 979.80  13.482974      1e+10
17 977.95  12.718058      1e+10
16 976.09  12.445202      1e+10
15 974.23  12.128023      1e+10
14 972.37  12.395146      1e+10
13 970.51  12.001455      1e+10
12 968.64  11.288474      1e+10
11 966.78  9.9133648      1e+10
10 964.90  9.0814752      1e+10
9 963.03  8.0660829      1e+10
8 961.16   7.494539      1e+10
7 959.28  6.8206454      1e+10
6 957.40  6.2668217      1e+10
5 955.51   5.858499      1e+10
4 953.62  5.4611106      1e+10
3 951.73  5.1697435      1e+10
2 949.84  4.8754358      1e+10
1 947.95  4.6095025      1e+10
0 946.05  4.3516441      1e+10
